TimeStamp,RAW_TP9,RAW_AF7,RAW_AF8,RAW_TP10,Right_AUX,Left_AUX,Marker
2025-02-28 12:40:31.181558,793.7728881835938,804.2490844726562,804.2490844726562,608.8278198242188,712.7838745117188,616.4835205078125,
2025-02-28 12:40:31.182645,790.952392578125,788.1318969726562,802.2344360351562,1059.7069091796875,626.959716796875,573.7728881835938,
2025-02-28 12:40:31.182181,809.084228515625,803.4432373046875,805.8607788085938,157.54579162597656,588.6813354492188,551.6116943359375,
2025-02-28 12:40:31.183747,803.8461303710938,798.6080322265625,807.069580078125,406.959716796875,657.5823974609375,561.2820434570312,
2025-02-28 12:40:31.184473,804.6520385742188,812.7106323242188,803.8461303710938,1481.5750732421875,931.1721801757812,1274.871826171875,
2025-02-28 12:40:31.183426,781.6849975585938,780.879150390625,798.6080322265625,0.0,793.3699340820312,675.3113403320312,
2025-02-28 12:40:31.184145,816.3369750976562,818.3516235351562,811.5018310546875,29.816850662231445,706.3369750976562,888.05859375,
2025-02-28 12:40:31.185286,792.967041015625,790.5494384765625,796.5933837890625,0.0,757.5091552734375,607.6190185546875,
2025-02-28 12:40:31.184910,780.879150390625,790.952392578125,796.996337890625,205.4945068359375,952.930419921875,1001.2820434570312,
2025-02-28 12:40:31.186202,802.2344360351562,803.040283203125,809.084228515625,142.63735961914062,843.7362670898438,762.3442993164062,
2025-02-28 12:40:31.185787,817.5457763671875,802.6373901367188,806.2637329101562,1155.201416015625,655.1648559570312,578.2051391601562,
2025-02-28 12:40:31.186659,782.4908447265625,796.1904907226562,794.981689453125,701.90478515625,984.3589477539062,819.5604248046875,
2025-02-28 12:40:31.223697,796.1904907226562,784.1025390625,790.1465454101562,0.0,843.3333129882812,697.069580078125,
2025-02-28 12:40:31.225726,818.3516235351562,808.2783813476562,813.91943359375,172.85714721679688,910.6226806640625,952.930419921875,
2025-02-28 12:40:31.225593,813.113525390625,796.1904907226562,808.2783813476562,735.7509155273438,829.6337280273438,909.8168334960938,
2025-02-28 12:40:31.225886,793.3699340820312,792.967041015625,796.996337890625,1001.2820434570312,867.912109375,992.8204956054688,
2025-02-28 12:40:31.226396,771.2088012695312,792.967041015625,797.8021850585938,0.0,765.1648559570312,870.7326049804688,
2025-02-28 12:40:31.226723,796.996337890625,806.6666870117188,807.069580078125,603.99267578125,835.6776733398438,970.2564086914062,
2025-02-28 12:40:31.226925,817.1428833007812,817.1428833007812,809.89013671875,157.14285278320312,915.8607788085938,1282.930419921875,
2025-02-28 12:40:31.227265,801.025634765625,802.6373901367188,803.8461303710938,1106.849853515625,784.908447265625,881.2088012695312,
2025-02-28 12:40:31.227440,779.2673950195312,784.908447265625,797.8021850585938,0.0,668.4615478515625,499.6336975097656,
2025-02-28 12:40:31.227690,784.5054931640625,799.8168334960938,799.4139404296875,330.80584716796875,691.025634765625,553.6264038085938,
2025-02-28 12:40:31.227874,811.5018310546875,811.90478515625,803.4432373046875,1645.164794921875,830.8424682617188,746.6300659179688,
2025-02-28 12:40:31.228117,799.8168334960938,800.2197875976562,801.025634765625,1491.245361328125,848.5714111328125,758.7179565429688,
2025-02-28 12:40:31.265438,770.8058471679688,791.7582397460938,791.3552856445312,209.5238037109375,761.1355590820312,621.7216186523438,
2025-02-28 12:40:31.266021,785.3113403320312,797.3992919921875,800.2197875976562,0.0,799.8168334960938,684.5787353515625,
2025-02-28 12:40:31.270612,807.4725341796875,807.87548828125,810.2930297851562,1092.3443603515625,906.1904907226562,773.6264038085938,
2025-02-28 12:40:31.271007,814.7252807617188,812.3076782226562,811.098876953125,169.23077392578125,861.8681030273438,855.4212646484375,
2025-02-28 12:40:31.271396,805.8607788085938,800.6226806640625,801.025634765625,799.8168334960938,742.6007080078125,849.3773193359375,
2025-02-28 12:40:31.271785,780.0732421875,792.1611938476562,792.967041015625,0.0,800.2197875976562,1012.967041015625,
2025-02-28 12:40:31.272707,805.4578857421875,797.3992919921875,806.6666870117188,177.2893829345703,980.3296508789062,942.8571166992188,
2025-02-28 12:40:31.272441,793.7728881835938,796.996337890625,807.069580078125,722.8571166992188,1004.1025390625,1276.4835205078125,
2025-02-28 12:40:31.273056,788.937744140625,793.3699340820312,798.2051391601562,1004.1025390625,824.7985229492188,694.6520385742188,
2025-02-28 12:40:31.273302,783.6996459960938,796.1904907226562,801.025634765625,0.0,836.4835205078125,689.8168334960938,
2025-02-28 12:40:31.273909,811.5018310546875,806.6666870117188,805.8607788085938,584.2490844726562,934.3956298828125,781.6849975585938,
2025-02-28 12:40:31.274299,830.4395751953125,809.89013671875,806.2637329101562,147.06959533691406,978.3150024414062,873.1502075195312,
2025-02-28 12:40:31.330939,805.4578857421875,793.3699340820312,802.2344360351562,1202.7471923828125,996.0439453125,890.0732421875,
2025-02-28 12:40:31.331496,790.1465454101562,793.3699340820312,790.5494384765625,240.14651489257812,793.7728881835938,618.901123046875,
2025-02-28 12:40:31.331290,780.4761962890625,782.4908447265625,789.3406372070312,0.0,869.9267578125,751.8681030273438,
2025-02-28 12:40:31.334998,821.1721801757812,804.2490844726562,799.4139404296875,1527.912109375,787.3259887695312,802.6373901367188,
2025-02-28 12:40:31.335124,818.3516235351562,805.8607788085938,802.6373901367188,4.835165023803711,813.113525390625,1111.2821044921875,
2025-02-28 12:40:31.335253,786.5201416015625,794.981689453125,808.2783813476562,450.4761962890625,887.6557006835938,1138.2784423828125,
2025-02-28 12:40:31.335445,792.1611938476562,785.7142944335938,808.2783813476562,0.0,805.4578857421875,1103.223388671875,
2025-02-28 12:40:31.335769,819.5604248046875,801.8314819335938,809.084228515625,981.5384521484375,718.8278198242188,1053.2601318359375,
2025-02-28 12:40:31.336004,823.99267578125,806.6666870117188,810.2930297851562,178.4981689453125,726.886474609375,768.7911987304688,
2025-02-28 12:40:31.336187,797.8021850585938,792.5640869140625,801.8314819335938,855.8241577148438,684.1758422851562,545.970703125,
2025-02-28 12:40:31.336487,784.908447265625,787.7289428710938,796.5933837890625,0.0,765.5677490234375,547.5823974609375,
2025-02-28 12:40:31.336966,811.5018310546875,799.4139404296875,806.6666870117188,630.1831665039062,903.7728881835938,702.3076782226562,
2025-02-28 12:40:31.355310,823.1868286132812,809.4871826171875,811.90478515625,156.73992919921875,943.6630249023438,851.3919677734375,
2025-02-28 12:40:31.355534,799.010986328125,801.8314819335938,801.025634765625,1019.010986328125,886.0439453125,787.7289428710938,
2025-02-28 12:40:31.355814,785.3113403320312,788.937744140625,792.1611938476562,0.0,720.03662109375,534.2857055664062,
2025-02-28 12:40:31.356206,801.025634765625,794.1758422851562,796.996337890625,520.5860595703125,761.5384521484375,574.981689453125,
2025-02-28 12:40:31.356504,818.3516235351562,807.4725341796875,807.4725341796875,116.84981536865234,839.7069702148438,785.3113403320312,
2025-02-28 12:40:31.358055,809.084228515625,798.2051391601562,805.4578857421875,1287.3626708984375,749.047607421875,911.4285888671875,
2025-02-28 12:40:31.358162,788.5347900390625,785.3113403320312,800.6226806640625,0.0,691.4285888671875,1007.7289428710938,
2025-02-28 12:40:31.358371,793.3699340820312,791.7582397460938,803.4432373046875,138.2051239013672,722.05126953125,774.8351440429688,
2025-02-28 12:40:31.358699,819.96337890625,809.4871826171875,808.6813354492188,1417.106201171875,798.2051391601562,816.3369750976562,
2025-02-28 12:40:31.358835,819.96337890625,804.2490844726562,801.8314819335938,55.60439682006836,847.3626098632812,973.8828125,
2025-02-28 12:40:31.359029,790.952392578125,786.923095703125,795.3846435546875,528.2417602539062,811.90478515625,642.2710571289062,
2025-02-28 12:40:31.359310,782.087890625,790.1465454101562,799.8168334960938,0.0,815.1282348632812,568.1318969726562,
2025-02-28 12:40:31.419105,803.040283203125,799.4139404296875,801.025634765625,881.6116943359375,886.8497924804688,797.3992919921875,
2025-02-28 12:40:31.421108,811.098876953125,792.1611938476562,796.5933837890625,182.93040466308594,910.2197875976562,847.3626098632812,
2025-02-28 12:40:31.421262,790.1465454101562,777.2527465820312,791.3552856445312,938.4249267578125,821.5750732421875,686.5933837890625,
2025-02-28 12:40:31.421564,779.6703491210938,789.7435913085938,797.3992919921875,0.0,734.1392211914062,805.054931640625,
2025-02-28 12:40:31.421788,806.6666870117188,799.8168334960938,810.6959838867188,612.05126953125,718.02197265625,868.3150024414062,
2025-02-28 12:40:31.423761,813.5164794921875,790.1465454101562,805.8607788085938,155.93406677246094,734.5421142578125,992.0146484375,
2025-02-28 12:40:31.423882,782.893798828125,793.7728881835938,794.1758422851562,1040.769287109375,664.029296875,914.2490844726562,
2025-02-28 12:40:31.424116,765.970703125,789.7435913085938,799.010986328125,0.0,744.2124633789062,618.901123046875,
2025-02-28 12:40:31.424590,813.113525390625,802.6373901367188,803.8461303710938,65.27472686767578,801.8314819335938,676.1171875,
2025-02-28 12:40:31.424338,786.1171875,790.952392578125,800.6226806640625,415.4212341308594,793.7728881835938,608.4249267578125,
2025-02-28 12:40:31.424978,804.2490844726562,794.5787353515625,795.7875366210938,1344.981689453125,836.4835205078125,702.7106323242188,
2025-02-28 12:40:31.425199,785.3113403320312,783.6996459960938,794.1758422851562,34.652015686035156,645.8974609375,624.945068359375,
2025-02-28 12:40:31.465341,798.6080322265625,791.7582397460938,802.2344360351562,37.47252655029297,612.05126953125,563.2966918945312,
2025-02-28 12:40:31.467142,821.5750732421875,802.2344360351562,797.8021850585938,1256.3370361328125,624.945068359375,528.2417602539062,
2025-02-28 12:40:31.467385,817.1428833007812,811.5018310546875,793.3699340820312,130.14651489257812,717.2161254882812,624.945068359375,
2025-02-28 12:40:31.467665,813.5164794921875,817.1428833007812,782.4908447265625,674.5054931640625,844.5421142578125,649.120849609375,
2025-02-28 12:40:31.468061,825.6043701171875,811.098876953125,794.1758422851562,0.0,865.4945068359375,722.4542236328125,
2025-02-28 12:40:31.468303,824.3956298828125,807.4725341796875,828.4249267578125,812.3076782226562,786.5201416015625,960.1831665039062,
2025-02-28 12:40:31.468577,780.4761962890625,807.4725341796875,836.886474609375,185.34799194335938,716.8131713867188,1042.3809814453125,
2025-02-28 12:40:31.468872,728.901123046875,799.8168334960938,837.6923217773438,985.1648559570312,723.2600708007812,766.3735961914062,
2025-02-28 12:40:31.469128,707.5457763671875,795.3846435546875,843.7362670898438,0.0,733.7362670898438,534.2857055664062,
2025-02-28 12:40:31.469351,702.7106323242188,821.1721801757812,863.8828125,603.1868286132812,956.1538696289062,832.8571166992188,
2025-02-28 12:40:31.469614,677.7289428710938,840.915771484375,910.2197875976562,157.54579162597656,1073.003662109375,925.5311279296875,
2025-02-28 12:40:31.469909,620.5128173828125,818.3516235351562,931.5750732421875,1118.1318359375,1001.2820434570312,790.5494384765625,
2025-02-28 12:40:31.510889,601.97802734375,793.7728881835938,929.96337890625,0.0,903.7728881835938,712.3809814453125,
2025-02-28 12:40:31.510999,637.8388061523438,792.967041015625,931.1721801757812,361.8315124511719,749.4505615234375,716.4102783203125,
2025-02-28 12:40:31.511270,648.7179565429688,827.6190185546875,944.4688720703125,1641.5384521484375,713.5897216796875,812.7106323242188,
2025-02-28 12:40:31.511407,631.7948608398438,826.4102783203125,974.2857055664062,1559.3406982421875,867.912109375,1016.1904907226562,
2025-02-28 12:40:31.511796,613.2600708007812,786.923095703125,969.4505615234375,294.5421142578125,974.6886596679688,1094.3590087890625,
2025-02-28 12:40:31.511964,619.7069702148438,786.923095703125,965.8241577148438,0.0,874.3589477539062,1027.069580078125,
2025-02-28 12:40:31.512179,649.9267578125,793.3699340820312,979.120849609375,1180.18310546875,720.8424682617188,1034.3223876953125,
2025-02-28 12:40:31.513079,673.2966918945312,771.6116943359375,975.091552734375,128.93772888183594,606.8131713867188,697.87548828125,
2025-02-28 12:40:31.513189,661.6116943359375,742.1978149414062,965.018310546875,671.2820434570312,449.6703186035156,298.1684875488281,
2025-02-28 12:40:31.513393,673.2966918945312,735.3479614257812,964.2124633789062,0.0,484.72528076171875,389.23077392578125,
2025-02-28 12:40:31.513566,712.7838745117188,755.4945068359375,965.018310546875,690.2197875976562,682.967041015625,619.3040161132812,
2025-02-28 12:40:31.513697,736.1538696289062,754.2857055664062,963.8095092773438,159.96336364746094,724.06591796875,639.4505615234375,
2025-02-28 12:40:31.556686,722.05126953125,718.02197265625,952.12451171875,1011.3552856445312,790.952392578125,661.6116943359375,
2025-02-28 12:40:31.556805,722.4542236328125,723.2600708007812,937.2161254882812,0.0,879.5970458984375,705.5311279296875,
2025-02-28 12:40:31.556920,761.5384521484375,751.062255859375,931.5750732421875,591.098876953125,841.3186645507812,685.3846435546875,
2025-02-28 12:40:31.557157,784.908447265625,751.4652099609375,921.098876953125,151.09890747070312,839.3040161132812,701.5018310546875,
2025-02-28 12:40:31.562731,774.4322509765625,742.6007080078125,910.6226806640625,1191.4652099609375,964.6153564453125,1008.937744140625,
2025-02-28 12:40:31.562863,770.4029541015625,732.12451171875,885.2380981445312,0.0,997.6557006835938,1199.9267578125,
2025-02-28 12:40:31.563126,793.7728881835938,736.5567626953125,868.7179565429688,325.1648254394531,994.8351440429688,1272.857177734375,
2025-02-28 12:40:31.563223,818.3516235351562,742.6007080078125,862.6740112304688,12.490842819213867,975.091552734375,1123.77294921875,
2025-02-28 12:40:31.563590,805.054931640625,733.7362670898438,822.7838745117188,0.0,794.1758422851562,618.09521484375,
2025-02-28 12:40:31.563488,784.1025390625,729.3040161132812,823.1868286132812,229.6703338623047,803.8461303710938,648.7179565429688,
2025-02-28 12:40:31.563358,807.4725341796875,735.3479614257812,845.3479614257812,1467.069580078125,882.0146484375,780.4761962890625,
2025-02-28 12:40:31.563802,835.6776733398438,740.989013671875,823.99267578125,938.4249267578125,745.4212646484375,608.8278198242188,
2025-02-28 12:40:31.605774,835.2747192382812,743.003662109375,813.5164794921875,154.3223419189453,695.8607788085938,625.3479614257812,
2025-02-28 12:40:31.607743,827.2161254882812,726.4835205078125,801.4285888671875,767.5823974609375,677.7289428710938,583.8461303710938,
2025-02-28 12:40:31.607833,817.5457763671875,718.8278198242188,794.5787353515625,0.0,600.7692260742188,428.71795654296875,
2025-02-28 12:40:31.608025,829.6337280273438,741.3919677734375,798.6080322265625,641.062255859375,698.2783813476562,743.4066162109375,
2025-02-28 12:40:31.608208,840.5128173828125,753.4798583984375,792.967041015625,151.5018310546875,830.4395751953125,1013.7728881835938,
2025-02-28 12:40:31.608354,820.7692260742188,751.4652099609375,790.952392578125,1019.8168334960938,909.010986328125,1078.24169921875,
2025-02-28 12:40:31.608456,812.7106323242188,747.4359130859375,790.1465454101562,0.0,910.6226806640625,1201.135498046875,
2025-02-28 12:40:31.608541,840.915771484375,756.3003540039062,788.5347900390625,539.5238037109375,953.7362670898438,1172.930419921875,
2025-02-28 12:40:31.608693,865.4945068359375,767.5823974609375,788.937744140625,131.75823974609375,1022.2344360351562,1023.040283203125,
2025-02-28 12:40:31.609438,844.5421142578125,763.5531005859375,780.0732421875,1190.6593017578125,952.5274658203125,835.2747192382812,
2025-02-28 12:40:31.609510,832.05126953125,756.3003540039062,774.029296875,0.0,754.2857055664062,580.2197875976562,
2025-02-28 12:40:31.609610,842.5274658203125,760.7326049804688,771.2088012695312,128.93772888183594,711.1721801757812,550.8058471679688,
2025-02-28 12:40:31.644095,869.120849609375,774.029296875,779.6703491210938,1422.7471923828125,788.937744140625,734.5421142578125,
2025-02-28 12:40:31.644226,859.8534545898438,770.0,785.3113403320312,1613.7362060546875,699.4871826171875,673.6996459960938,
2025-02-28 12:40:31.644441,813.113525390625,751.4652099609375,775.2380981445312,373.9194030761719,755.091552734375,613.2600708007812,
2025-02-28 12:40:31.650024,813.5164794921875,753.8828125,769.1941528320312,0.0,776.8497924804688,588.6813354492188,
2025-02-28 12:40:31.651971,844.1392211914062,770.0,774.029296875,856.2271118164062,709.96337890625,653.5531005859375,
2025-02-28 12:40:31.652092,853.8095092773438,780.0732421875,781.6849975585938,172.05128479003906,861.8681030273438,1108.864501953125,
2025-02-28 12:40:31.652322,827.6190185546875,772.8204956054688,776.4468994140625,917.4725341796875,719.6337280273438,1113.6995849609375,
2025-02-28 12:40:31.652495,811.90478515625,761.1355590820312,771.6116943359375,0.0,502.4542236328125,578.2051391601562,
2025-02-28 12:40:31.652732,837.6923217773438,772.0146484375,772.8204956054688,616.886474609375,673.6996459960938,555.2380981445312,
2025-02-28 12:40:31.652906,847.3626098632812,779.6703491210938,776.0439453125,155.93406677246094,848.1685180664062,950.915771484375,
2025-02-28 12:40:31.653117,819.1575317382812,769.5970458984375,772.8204956054688,1021.4285888671875,863.076904296875,933.1868286132812,
2025-02-28 12:40:31.653318,804.2490844726562,761.94140625,763.5531005859375,0.0,743.4066162109375,533.8828125,
2025-02-28 12:40:31.689451,828.4249267578125,774.029296875,773.2234497070312,461.75823974609375,702.7106323242188,574.1758422851562,
2025-02-28 12:40:31.690019,847.7655639648438,793.3699340820312,787.3259887695312,93.07691955566406,855.8241577148438,837.2893676757812,
2025-02-28 12:40:31.690155,827.6190185546875,786.923095703125,782.893798828125,1285.3480224609375,838.4981689453125,686.1904907226562,
2025-02-28 12:40:31.690412,799.8168334960938,772.4176025390625,776.0439453125,0.0,770.8058471679688,671.2820434570312,
2025-02-28 12:40:31.692072,809.084228515625,777.6557006835938,781.2820434570312,98.71794891357422,806.2637329101562,908.2051391601562,
2025-02-28 12:40:31.692212,834.06591796875,795.3846435546875,790.5494384765625,1345.3846435546875,799.010986328125,999.2673950195312,
2025-02-28 12:40:31.692401,830.4395751953125,794.981689453125,788.937744140625,85.4212417602539,810.6959838867188,1188.24169921875,
2025-02-28 12:40:31.692726,800.6226806640625,777.2527465820312,778.05859375,597.94873046875,811.098876953125,886.4468994140625,
2025-02-28 12:40:31.692893,794.1758422851562,771.6116943359375,766.7765502929688,0.0,809.89013671875,606.00732421875,
2025-02-28 12:40:31.693071,814.3223266601562,782.087890625,768.3883056640625,779.2673950195312,741.7948608398438,647.912109375,
2025-02-28 12:40:31.693305,820.7692260742188,800.2197875976562,782.893798828125,171.24542236328125,722.05126953125,601.97802734375,
2025-02-28 12:40:31.694513,800.2197875976562,788.937744140625,776.8497924804688,956.5567626953125,699.4871826171875,507.28936767578125,
2025-02-28 12:40:31.736842,791.7582397460938,776.8497924804688,771.2088012695312,0.0,801.8314819335938,784.908447265625,
2025-02-28 12:40:31.737056,821.1721801757812,799.010986328125,787.7289428710938,612.05126953125,890.879150390625,900.5494384765625,
2025-02-28 12:40:31.737252,835.2747192382812,800.6226806640625,789.3406372070312,157.14285278320312,785.3113403320312,710.3662719726562,
2025-02-28 12:40:31.738200,804.2490844726562,788.1318969726562,780.879150390625,1049.6336669921875,759.5238037109375,718.02197265625,
2025-02-28 12:40:31.738388,792.5640869140625,793.7728881835938,782.4908447265625,0.0,759.9267578125,679.3406372070312,
2025-02-28 12:40:31.738627,810.6959838867188,807.87548828125,787.7289428710938,426.70330810546875,684.981689453125,819.1575317382812,
2025-02-28 12:40:31.738953,823.1868286132812,814.3223266601562,789.3406372070312,62.85714340209961,699.4871826171875,1017.3992919921875,
2025-02-28 12:40:31.739303,811.5018310546875,802.2344360351562,784.908447265625,1387.2894287109375,784.908447265625,817.5457763671875,
2025-02-28 12:40:31.739735,817.5457763671875,792.1611938476562,772.8204956054688,0.0,815.1282348632812,672.893798828125,
2025-02-28 12:40:31.739596,797.8021850585938,792.967041015625,777.6557006835938,100.73259735107422,853.8095092773438,682.1611938476562,
2025-02-28 12:40:31.739922,842.12451171875,794.5787353515625,780.879150390625,1182.19775390625,831.6483764648438,773.2234497070312,
2025-02-28 12:40:31.740179,846.959716796875,792.967041015625,790.1465454101562,112.0146484375,702.7106323242188,636.6300659179688,
2025-02-28 12:40:31.800577,810.6959838867188,793.7728881835938,784.1025390625,633.8095092773438,505.6776428222656,433.5531005859375,
2025-02-28 12:40:31.801159,779.6703491210938,800.2197875976562,774.029296875,0.0,659.5970458984375,556.4468994140625,
2025-02-28 12:40:31.801795,800.2197875976562,803.4432373046875,771.6116943359375,701.90478515625,655.5677490234375,689.4139404296875,
2025-02-28 12:40:31.803420,817.1428833007812,807.4725341796875,772.4176025390625,160.76922607421875,547.5823974609375,904.1758422851562,
2025-02-28 12:40:31.804015,800.6226806640625,794.981689453125,758.3150024414062,0.0,652.7472534179688,917.87548828125,
2025-02-28 12:40:31.803768,797.8021850585938,800.2197875976562,763.5531005859375,1009.7435913085938,657.1795043945312,927.94873046875,
2025-02-28 12:40:31.804548,832.05126953125,808.6813354492188,763.1502075195312,603.5897216796875,789.7435913085938,1104.029296875,
2025-02-28 12:40:31.804974,835.6776733398438,816.3369750976562,765.5677490234375,157.54579162597656,956.5567626953125,934.3956298828125,
2025-02-28 12:40:31.805244,807.4725341796875,803.8461303710938,759.9267578125,1119.3406982421875,911.4285888671875,787.3259887695312,
2025-02-28 12:40:31.805812,806.2637329101562,804.2490844726562,775.2380981445312,352.1611633300781,978.7179565429688,827.6190185546875,
2025-02-28 12:40:31.805488,787.7289428710938,791.3552856445312,763.5531005859375,0.0,939.2307739257812,795.3846435546875,
2025-02-28 12:40:31.806166,833.2600708007812,817.94873046875,785.3113403320312,0.0,1076.22705078125,994.4322509765625,
2025-02-28 12:40:31.824702,823.1868286132812,801.8314819335938,784.1025390625,1516.6300048828125,1076.6300048828125,1013.3699340820312,
2025-02-28 12:40:31.828703,803.4432373046875,799.010986328125,774.029296875,254.24908447265625,927.5457763671875,801.4285888671875,
2025-02-28 12:40:31.828807,814.3223266601562,811.90478515625,776.8497924804688,0.0,872.3442993164062,709.96337890625,
2025-02-28 12:40:31.828980,825.6043701171875,816.3369750976562,784.5054931640625,1084.6885986328125,1012.5640869140625,895.7142944335938,
2025-02-28 12:40:31.829333,816.7399291992188,811.5018310546875,784.5054931640625,163.99267578125,1035.93408203125,979.5238037109375,
2025-02-28 12:40:31.829469,795.3846435546875,799.8168334960938,772.4176025390625,790.952392578125,784.1025390625,927.94873046875,
2025-02-28 12:40:31.829714,792.967041015625,797.3992919921875,770.8058471679688,0.0,718.02197265625,931.5750732421875,
2025-02-28 12:40:31.830010,824.7985229492188,806.2637329101562,781.2820434570312,662.4176025390625,853.4066162109375,1040.3663330078125,
2025-02-28 12:40:31.830207,831.2454223632812,802.6373901367188,784.1025390625,161.1721649169922,743.8095092773438,853.4066162109375,
2025-02-28 12:40:31.830477,791.7582397460938,786.5201416015625,782.893798828125,1014.5787353515625,832.05126953125,739.7802124023438,
2025-02-28 12:40:31.830652,778.05859375,787.3259887695312,780.879150390625,0.0,974.6886596679688,802.6373901367188,
2025-02-28 12:40:31.831063,814.7252807617188,798.6080322265625,784.908447265625,559.2673950195312,796.5933837890625,668.8644409179688,
2025-02-28 12:40:31.870513,842.12451171875,811.098876953125,792.967041015625,139.41392517089844,716.00732421875,705.1282348632812,
2025-02-28 12:40:31.870868,813.5164794921875,805.054931640625,783.2966918945312,1195.4945068359375,732.930419921875,705.5311279296875,
2025-02-28 12:40:31.871181,785.3113403320312,789.7435913085938,780.879150390625,0.0,708.7545776367188,635.8241577148438,
2025-02-28 12:40:31.872899,804.6520385742188,799.4139404296875,791.3552856445312,295.3479919433594,823.99267578125,987.9853515625,
2025-02-28 12:40:31.873055,828.4249267578125,809.4871826171875,794.5787353515625,1585.5311279296875,911.4285888671875,1149.96337890625,
2025-02-28 12:40:31.873231,821.1721801757812,805.8607788085938,794.981689453125,1617.3626708984375,833.2600708007812,1102.820556640625,
2025-02-28 12:40:31.873511,786.1171875,798.6080322265625,780.0732421875,407.3626403808594,705.5311279296875,988.3883056640625,
2025-02-28 12:40:31.873711,784.908447265625,797.3992919921875,780.4761962890625,0.0,705.5311279296875,912.6373901367188,
2025-02-28 12:40:31.873956,817.5457763671875,801.025634765625,788.5347900390625,989.1941528320312,852.1978149414062,1010.5494384765625,
2025-02-28 12:40:31.874158,821.5750732421875,810.2930297851562,792.967041015625,175.27471923828125,862.6740112304688,806.2637329101562,
2025-02-28 12:40:31.874697,798.2051391601562,792.967041015625,794.1758422851562,0.0,699.084228515625,503.6629943847656,
2025-02-28 12:40:31.874454,798.2051391601562,800.2197875976562,796.1904907226562,843.7362670898438,735.7509155273438,558.05859375,
2025-02-28 12:40:31.935110,821.1721801757812,813.113525390625,796.1904907226562,626.1538696289062,702.3076782226562,584.2490844726562,
2025-02-28 12:40:31.935718,798.2051391601562,804.6520385742188,795.3846435546875,1020.6226806640625,777.6557006835938,635.8241577148438,
2025-02-28 12:40:31.935476,828.8278198242188,819.1575317382812,796.996337890625,153.91941833496094,797.3992919921875,737.3626098632812,
2025-02-28 12:40:31.939917,769.5970458984375,790.952392578125,792.5640869140625,0.0,606.4102783203125,402.5274658203125,
2025-02-28 12:40:31.940097,787.7289428710938,805.4578857421875,801.025634765625,509.70697021484375,699.084228515625,607.6190185546875,
2025-02-28 12:40:31.940735,799.8168334960938,807.87548828125,798.6080322265625,1306.7032470703125,826.00732421875,1148.754638671875,
2025-02-28 12:40:31.940361,810.2930297851562,815.1282348632812,806.6666870117188,109.5970687866211,838.4981689453125,1007.7289428710938,
2025-02-28 12:40:31.941379,782.087890625,789.3406372070312,782.087890625,0.0,727.6923217773438,770.8058471679688,
2025-02-28 12:40:31.941889,819.5604248046875,804.2490844726562,799.010986328125,1415.091552734375,956.959716796875,923.91943359375,
2025-02-28 12:40:31.941699,796.996337890625,787.3259887695312,780.879150390625,135.38461303710938,787.3259887695312,634.6153564453125,
2025-02-28 12:40:31.942152,817.5457763671875,805.054931640625,799.8168334960938,61.24542236328125,1012.967041015625,1110.0732421875,
2025-02-28 12:40:31.942344,789.3406372070312,784.5054931640625,794.5787353515625,550.8058471679688,861.062255859375,788.5347900390625,
2025-02-28 12:40:31.961676,782.893798828125,783.2966918945312,800.6226806640625,0.0,745.4212646484375,576.5933837890625,
2025-02-28 12:40:31.961975,816.3369750976562,803.040283203125,805.4578857421875,837.6923217773438,739.3773193359375,650.3296508789062,
2025-02-28 12:40:31.962348,817.94873046875,806.2637329101562,800.6226806640625,179.7069549560547,810.6959838867188,793.3699340820312,
2025-02-28 12:40:31.963280,795.7875366210938,794.1758422851562,788.1318969726562,956.959716796875,734.1392211914062,918.6813354492188,
2025-02-28 12:40:31.963512,793.7728881835938,787.7289428710938,785.7142944335938,0.0,684.1758422851562,742.1978149414062,
2025-02-28 12:40:31.964127,813.5164794921875,816.7399291992188,806.2637329101562,157.94871520996094,757.912109375,1162.05126953125,
2025-02-28 12:40:31.963784,804.6520385742188,807.4725341796875,800.2197875976562,610.8424682617188,831.6483764648438,961.7948608398438,
2025-02-28 12:40:31.964990,790.952392578125,795.3846435546875,803.4432373046875,1038.754638671875,656.3735961914062,732.12451171875,
2025-02-28 12:40:31.965591,778.4615478515625,782.4908447265625,797.3992919921875,0.0,821.97802734375,606.4102783203125,
2025-02-28 12:40:31.965845,796.5933837890625,789.7435913085938,796.5933837890625,437.5824279785156,898.937744140625,727.6923217773438,
2025-02-28 12:40:31.966131,815.5311279296875,801.8314819335938,802.2344360351562,76.55677795410156,928.7545776367188,784.5054931640625,
2025-02-28 12:40:31.966451,811.098876953125,794.5787353515625,801.8314819335938,1353.040283203125,936.8131713867188,736.5567626953125,
2025-02-28 12:40:32.024343,792.5640869140625,786.1171875,798.2051391601562,36.66666793823242,809.89013671875,702.3076782226562,
2025-02-28 12:40:32.024509,799.4139404296875,796.1904907226562,792.967041015625,28.60805892944336,752.6740112304688,795.3846435546875,
2025-02-28 12:40:32.024897,822.3809814453125,815.1282348632812,796.1904907226562,1247.4725341796875,818.7545776367188,796.996337890625,
2025-02-28 12:40:32.025015,815.1282348632812,818.7545776367188,801.8314819335938,133.77288818359375,919.4871826171875,808.2783813476562,
2025-02-28 12:40:32.025598,784.1025390625,801.025634765625,797.8021850585938,691.025634765625,1011.3552856445312,848.1685180664062,
2025-02-28 12:40:32.028587,791.7582397460938,799.8168334960938,795.7875366210938,0.0,972.2710571289062,1049.230712890625,
2025-02-28 12:40:32.028672,824.7985229492188,815.93408203125,801.4285888671875,797.8021850585938,853.003662109375,1163.6629638671875,
2025-02-28 12:40:32.028809,826.8131713867188,810.6959838867188,803.4432373046875,183.3333282470703,787.7289428710938,872.3442993164062,
2025-02-28 12:40:32.029040,806.2637329101562,791.7582397460938,795.7875366210938,981.94140625,751.8681030273438,622.930419921875,
2025-02-28 12:40:32.029186,807.87548828125,792.1611938476562,794.981689453125,0.0,707.1428833007812,568.5347900390625,
2025-02-28 12:40:32.029352,820.7692260742188,801.025634765625,801.4285888671875,604.7985229492188,940.4395751953125,778.8644409179688,
2025-02-28 12:40:32.029560,826.8131713867188,803.8461303710938,799.4139404296875,157.14285278320312,1052.05126953125,904.5787353515625,
2025-02-28 12:40:32.068842,797.3992919921875,798.2051391601562,790.5494384765625,1096.3736572265625,795.3846435546875,729.3040161132812,
2025-02-28 12:40:32.068993,777.6557006835938,788.937744140625,790.5494384765625,0.0,811.90478515625,700.6959838867188,
2025-02-28 12:40:32.070041,801.8314819335938,796.1904907226562,800.6226806640625,363.8461608886719,880.4029541015625,778.8644409179688,
2025-02-28 12:40:32.071647,816.3369750976562,811.90478515625,801.8314819335938,8.461538314819336,778.8644409179688,944.4688720703125,
2025-02-28 12:40:32.071783,805.054931640625,807.069580078125,801.4285888671875,1498.09521484375,753.076904296875,1102.4176025390625,
2025-02-28 12:40:32.072047,780.0732421875,795.7875366210938,795.7875366210938,230.87911987304688,767.5823974609375,1110.879150390625,
2025-02-28 12:40:32.072263,786.923095703125,794.1758422851562,795.7875366210938,0.0,721.2454223632812,1058.09521484375,
2025-02-28 12:40:32.072687,816.7399291992188,797.8021850585938,807.87548828125,1099.194091796875,684.981689453125,772.0146484375,
2025-02-28 12:40:32.072852,815.1282348632812,803.8461303710938,810.2930297851562,145.45787048339844,688.6080322265625,589.89013671875,
2025-02-28 12:40:32.073153,796.1904907226562,793.7728881835938,807.4725341796875,719.2307739257812,613.6630249023438,496.8132019042969,
2025-02-28 12:40:32.073355,788.937744140625,788.937744140625,800.6226806640625,0.0,619.7069702148438,394.0659484863281,
2025-02-28 12:40:32.073531,805.054931640625,800.2197875976562,797.3992919921875,667.6557006835938,724.4688720703125,514.945068359375,
2025-02-28 12:40:32.114905,822.3809814453125,801.025634765625,804.2490844726562,156.3369903564453,772.8204956054688,714.7985229492188,
2025-02-28 12:40:32.116904,795.7875366210938,792.967041015625,800.2197875976562,1014.981689453125,759.120849609375,680.952392578125,
2025-02-28 12:40:32.117033,778.4615478515625,792.967041015625,789.7435913085938,0.0,758.3150024414062,614.06591796875,
2025-02-28 12:40:32.117179,799.4139404296875,795.7875366210938,799.010986328125,566.1171875,660.8058471679688,551.2088012695312,
2025-02-28 12:40:32.117447,816.7399291992188,799.8168334960938,803.4432373046875,142.23443603515625,679.3406372070312,659.1941528320312,
2025-02-28 12:40:32.117658,809.4871826171875,796.1904907226562,797.3992919921875,1214.029296875,736.959716796875,954.5421142578125,
2025-02-28 12:40:32.117896,784.908447265625,791.7582397460938,800.2197875976562,0.0,693.4432373046875,916.6666870117188,
2025-02-28 12:40:32.118812,793.7728881835938,811.5018310546875,812.3076782226562,348.5347900390625,915.8607788085938,1031.5018310546875,
2025-02-28 12:40:32.118937,821.1721801757812,821.5750732421875,815.93408203125,1645.5677490234375,1040.769287109375,1115.7142333984375,
2025-02-28 12:40:32.119115,806.6666870117188,803.8461303710938,806.2637329101562,1567.3992919921875,921.098876953125,844.1392211914062,
2025-02-28 12:40:32.119447,780.879150390625,792.967041015625,795.7875366210938,0.0,762.7472534179688,606.8131713867188,
2025-02-28 12:40:32.119285,776.8497924804688,792.5640869140625,798.2051391601562,364.24908447265625,875.1648559570312,727.2893676757812,
2025-02-28 12:40:32.160648,810.6959838867188,805.8607788085938,805.054931640625,951.3186645507812,760.7326049804688,688.2051391601562,
2025-02-28 12:40:32.163198,815.93408203125,813.113525390625,813.113525390625,175.6776580810547,874.3589477539062,819.1575317382812,
2025-02-28 12:40:32.163622,793.3699340820312,790.952392578125,802.2344360351562,858.6447143554688,823.99267578125,638.2417602539062,
2025-02-28 12:40:32.163913,783.6996459960938,777.2527465820312,796.1904907226562,0.0,622.930419921875,563.2966918945312,
2025-02-28 12:40:32.164260,801.4285888671875,796.996337890625,802.2344360351562,643.4798583984375,707.1428833007812,925.5311279296875,
2025-02-28 12:40:32.164512,812.3076782226562,809.89013671875,806.6666870117188,160.76922607421875,928.3516235351562,1309.5238037109375,
2025-02-28 12:40:32.164916,789.3406372070312,794.981689453125,797.8021850585938,1016.5933837890625,884.4322509765625,1149.157470703125,
2025-02-28 12:40:32.165500,797.3992919921875,788.1318969726562,799.010986328125,529.4505615234375,904.981689453125,850.989013671875,
2025-02-28 12:40:32.165225,784.908447265625,778.8644409179688,792.967041015625,0.0,895.3113403320312,695.4578857421875,
2025-02-28 12:40:32.165963,809.084228515625,806.2637329101562,800.2197875976562,126.92308044433594,652.3442993164062,745.4212646484375,
2025-02-28 12:40:32.166320,796.1904907226562,807.87548828125,795.3846435546875,1210.805908203125,516.959716796875,364.6520080566406,
2025-02-28 12:40:32.166548,779.6703491210938,795.7875366210938,791.7582397460938,0.0,538.3150024414062,311.4652099609375,
2025-02-28 12:40:32.206437,799.4139404296875,797.8021850585938,798.6080322265625,159.1575164794922,622.12451171875,454.1025695800781,
2025-02-28 12:40:32.207282,821.1721801757812,810.6959838867188,804.2490844726562,1438.864501953125,772.4176025390625,680.952392578125,
2025-02-28 12:40:32.207686,819.1575317382812,799.8168334960938,800.6226806640625,11.282051086425781,684.981689453125,552.0146484375,
2025-02-28 12:40:32.209124,796.5933837890625,787.7289428710938,791.3552856445312,450.4761962890625,750.6593627929688,517.3626098632812,
2025-02-28 12:40:32.209249,796.1904907226562,797.8021850585938,797.8021850585938,0.0,882.8204956054688,734.945068359375,
2025-02-28 12:40:32.209453,823.1868286132812,813.113525390625,808.2783813476562,899.3406372070312,805.8607788085938,991.6116943359375,
2025-02-28 12:40:32.209774,825.6043701171875,807.069580078125,806.2637329101562,182.93040466308594,777.6557006835938,1017.8021850585938,
2025-02-28 12:40:32.210079,787.3259887695312,789.7435913085938,801.025634765625,947.2893676757812,770.8058471679688,746.6300659179688,
2025-02-28 12:40:32.210354,764.3589477539062,789.7435913085938,798.6080322265625,0.0,642.2710571289062,527.032958984375,
2025-02-28 12:40:32.211671,797.8021850585938,805.4578857421875,805.4578857421875,610.8424682617188,724.4688720703125,636.6300659179688,
2025-02-28 12:40:32.211871,817.1428833007812,809.084228515625,809.89013671875,158.75457763671875,926.7399291992188,853.4066162109375,
2025-02-28 12:40:32.212035,785.3113403320312,792.5640869140625,801.025634765625,1031.098876953125,778.8644409179688,816.7399291992188,
2025-02-28 12:40:32.249227,774.4322509765625,788.1318969726562,797.8021850585938,0.0,649.9267578125,606.00732421875,
2025-02-28 12:40:32.249522,798.6080322265625,803.4432373046875,801.4285888671875,459.74359130859375,742.1978149414062,628.1685180664062,
2025-02-28 12:40:32.250141,807.87548828125,808.6813354492188,800.2197875976562,77.36264038085938,815.93408203125,676.5201416015625,
2025-02-28 12:40:32.252437,788.1318969726562,803.040283203125,796.996337890625,1371.5750732421875,825.6043701171875,815.1282348632812,
2025-02-28 12:40:32.252578,773.6264038085938,793.7728881835938,795.3846435546875,51.17216110229492,780.4761962890625,906.996337890625,
2025-02-28 12:40:32.252790,783.6996459960938,792.1611938476562,805.054931640625,77.76556396484375,718.4249267578125,862.6740112304688,
2025-02-28 12:40:32.253218,788.1318969726562,805.8607788085938,796.996337890625,98.31501770019531,906.1904907226562,1038.754638671875,
2025-02-28 12:40:32.253086,799.8168334960938,804.6520385742188,808.2783813476562,1338.1318359375,800.2197875976562,1133.84619140625,
2025-02-28 12:40:32.253542,762.7472534179688,794.1758422851562,790.5494384765625,629.3773193359375,882.0146484375,731.3186645507812,
2025-02-28 12:40:32.253753,772.0146484375,794.1758422851562,790.5494384765625,0.0,803.8461303710938,638.2417602539062,
2025-02-28 12:40:32.254024,804.2490844726562,805.054931640625,795.7875366210938,765.970703125,786.1171875,628.5714111328125,
2025-02-28 12:40:32.254279,819.1575317382812,805.054931640625,803.4432373046875,173.6630096435547,823.5897216796875,690.6226806640625,
2025-02-28 12:40:32.315502,805.4578857421875,797.8021850585938,800.6226806640625,985.970703125,774.4322509765625,630.989013671875,
2025-02-28 12:40:32.315825,797.3992919921875,794.5787353515625,793.3699340820312,0.0,783.2966918945312,701.098876953125,
2025-02-28 12:40:32.316967,829.2307739257812,793.7728881835938,803.4432373046875,606.00732421875,892.893798828125,913.8461303710938,
2025-02-28 12:40:32.318612,840.5128173828125,804.2490844726562,812.3076782226562,158.75457763671875,730.5128173828125,647.5091552734375,
2025-02-28 12:40:32.318822,807.87548828125,811.098876953125,805.4578857421875,1090.7325439453125,697.4725341796875,588.2783813476562,
2025-02-28 12:40:32.319103,787.3259887695312,803.040283203125,803.4432373046875,0.0,857.8388061523438,933.1868286132812,
2025-02-28 12:40:32.319510,806.2637329101562,805.054931640625,809.084228515625,401.3186950683594,872.3442993164062,1179.3773193359375,
2025-02-28 12:40:32.320061,783.2966918945312,801.8314819335938,808.2783813476562,1414.2857666015625,783.2966918945312,709.1575317382812,
2025-02-28 12:40:32.319833,811.098876953125,811.098876953125,811.098876953125,50.36629867553711,813.113525390625,999.2673950195312,
2025-02-28 12:40:32.320505,758.3150024414062,794.5787353515625,799.010986328125,145.05494689941406,755.8974609375,609.6337280273438,
2025-02-28 12:40:32.320771,762.3442993164062,799.4139404296875,801.4285888671875,0.0,711.1721801757812,529.047607421875,
2025-02-28 12:40:32.322653,789.3406372070312,805.4578857421875,817.5457763671875,1096.776611328125,740.1831665039062,600.7692260742188,
2025-02-28 12:40:32.338592,789.3406372070312,807.4725341796875,811.098876953125,152.7106170654297,840.5128173828125,790.952392578125,
2025-02-28 12:40:32.338906,769.5970458984375,795.3846435546875,797.8021850585938,730.5128173828125,862.6740112304688,725.2747192382812,
2025-02-28 12:40:32.340383,761.5384521484375,787.7289428710938,800.2197875976562,0.0,749.047607421875,641.8681030273438,
2025-02-28 12:40:32.341873,774.029296875,798.6080322265625,811.5018310546875,720.03662109375,682.967041015625,894.5054931640625,
2025-02-28 12:40:32.342089,781.6849975585938,810.6959838867188,812.3076782226562,171.64834594726562,860.2564086914062,1136.2637939453125,
2025-02-28 12:40:32.342321,770.4029541015625,807.069580078125,811.098876953125,1005.7142944335938,852.1978149414062,1118.937744140625,
2025-02-28 12:40:32.342705,759.120849609375,811.5018310546875,813.113525390625,0.0,821.5750732421875,1150.3663330078125,
2025-02-28 12:40:32.342946,778.4615478515625,819.1575317382812,814.7252807617188,601.5750732421875,1046.00732421875,1141.5018310546875,
2025-02-28 12:40:32.343233,796.996337890625,816.7399291992188,813.91943359375,155.5311279296875,1010.1465454101562,875.970703125,
2025-02-28 12:40:32.343508,770.4029541015625,809.89013671875,802.2344360351562,1157.6190185546875,874.3589477539062,794.5787353515625,
2025-02-28 12:40:32.343909,759.120849609375,803.4432373046875,798.6080322265625,0.0,865.8974609375,674.1025390625,
2025-02-28 12:40:32.344120,775.2380981445312,809.4871826171875,809.4871826171875,278.8278503417969,920.2930297851562,640.2564086914062,
2025-02-28 12:40:32.383264,798.2051391601562,817.5457763671875,814.7252807617188,1592.783935546875,889.6703491210938,758.7179565429688,
2025-02-28 12:40:32.383607,796.1904907226562,811.90478515625,812.3076782226562,1547.2528076171875,746.2271118164062,643.076904296875,
2025-02-28 12:40:32.383952,780.0732421875,807.4725341796875,809.084228515625,291.72161865234375,828.4249267578125,657.5823974609375,
2025-02-28 12:40:32.384276,786.923095703125,811.90478515625,810.6959838867188,0.0,929.5604248046875,734.5421142578125,
2025-02-28 12:40:32.385786,808.2783813476562,824.3956298828125,810.6959838867188,1015.7875366210938,916.6666870117188,818.3516235351562,
2025-02-28 12:40:32.385936,811.098876953125,828.4249267578125,807.069580078125,173.26007080078125,850.5860595703125,1055.6776123046875,
2025-02-28 12:40:32.386126,782.4908447265625,808.6813354492188,799.8168334960938,840.5128173828125,721.6483764648438,1072.19775390625,
2025-02-28 12:40:32.386386,786.1171875,801.8314819335938,795.3846435546875,0.0,868.7179565429688,1031.098876953125,
2025-02-28 12:40:32.386585,825.2014770507812,809.084228515625,805.4578857421875,646.3003540039062,983.9560546875,946.4835205078125,
2025-02-28 12:40:32.386962,830.8424682617188,807.069580078125,804.2490844726562,159.96336364746094,812.3076782226562,725.6776733398438,
2025-02-28 12:40:32.387207,803.040283203125,792.967041015625,791.3552856445312,1016.996337890625,731.7216186523438,591.5018310546875,
2025-02-28 12:40:32.387438,793.3699340820312,790.1465454101562,792.1611938476562,0.0,786.1171875,579.010986328125,
2025-02-28 12:40:32.446671,806.2637329101562,807.87548828125,794.5787353515625,525.018310546875,764.3589477539062,623.7362670898438,
2025-02-28 12:40:32.451425,822.7838745117188,805.054931640625,800.2197875976562,124.5054931640625,809.4871826171875,738.974365234375,
2025-02-28 12:40:32.451681,805.4578857421875,796.1904907226562,809.89013671875,1222.4908447265625,807.069580078125,688.6080322265625,
2025-02-28 12:40:32.451964,770.4029541015625,801.025634765625,806.2637329101562,0.0,730.5128173828125,753.4798583984375,
2025-02-28 12:40:32.452335,789.7435913085938,806.6666870117188,802.2344360351562,191.39193725585938,778.05859375,899.7435913085938,
2025-02-28 12:40:32.452716,821.1721801757812,811.098876953125,814.7252807617188,1490.4395751953125,843.3333129882812,1095.970703125,
2025-02-28 12:40:32.453899,802.6373901367188,805.8607788085938,806.2637329101562,1628.6446533203125,645.4945068359375,1025.86083984375,
2025-02-28 12:40:32.454167,782.893798828125,789.7435913085938,785.7142944335938,410.989013671875,687.8021850585938,694.2490844726562,
2025-02-28 12:40:32.454485,783.2966918945312,789.3406372070312,797.8021850585938,0.0,901.7582397460938,682.1611938476562,
2025-02-28 12:40:32.455182,808.2783813476562,797.8021850585938,816.3369750976562,901.7582397460938,759.120849609375,800.6226806640625,
2025-02-28 12:40:32.455391,815.1282348632812,798.6080322265625,805.8607788085938,175.27471923828125,635.4212646484375,717.6190185546875,
2025-02-28 12:40:32.455679,787.3259887695312,790.1465454101562,796.1904907226562,889.6703491210938,743.8095092773438,572.5640869140625,
2025-02-28 12:40:32.493725,791.7582397460938,788.1318969726562,808.2783813476562,0.0,1006.5201416015625,817.5457763671875,
2025-02-28 12:40:32.495217,815.5311279296875,802.6373901367188,808.2783813476562,623.7362670898438,984.7619018554688,873.9560546875,
2025-02-28 12:40:32.495910,809.89013671875,796.1904907226562,792.967041015625,1019.4139404296875,879.1941528320312,697.87548828125,
2025-02-28 12:40:32.495533,826.8131713867188,810.2930297851562,803.4432373046875,157.94871520996094,875.5677490234375,767.1795043945312,
2025-02-28 12:40:32.496654,802.6373901367188,783.6996459960938,788.1318969726562,0.0,668.4615478515625,527.4359130859375,
2025-02-28 12:40:32.497420,822.3809814453125,802.2344360351562,801.8314819335938,514.5421142578125,653.1502075195312,827.6190185546875,
2025-02-28 12:40:32.497670,834.06591796875,816.7399291992188,809.084228515625,112.0146484375,878.3883056640625,1266.4102783203125,
2025-02-28 12:40:32.498034,813.5164794921875,796.996337890625,806.2637329101562,1301.062255859375,863.4798583984375,954.945068359375,
2025-02-28 12:40:32.498377,795.7875366210938,784.1025390625,806.6666870117188,8.864468574523926,678.5347900390625,508.0952453613281,
2025-02-28 12:40:32.498686,804.2490844726562,788.937744140625,804.2490844726562,65.27472686767578,638.6447143554688,503.6629943847656,
2025-02-28 12:40:32.498998,819.1575317382812,809.89013671875,807.4725341796875,1311.94140625,755.4945068359375,668.05859375,
2025-02-28 12:40:32.499344,812.3076782226562,817.94873046875,810.6959838867188,88.64469146728516,807.069580078125,748.2417602539062,
2025-02-28 12:40:32.537676,781.2820434570312,797.8021850585938,804.6520385742188,593.5164794921875,770.0,792.967041015625,
2025-02-28 12:40:32.538720,819.1575317382812,793.7728881835938,795.7875366210938,782.893798828125,706.7399291992188,543.5531005859375,
2025-02-28 12:40:32.538471,786.1171875,781.6849975585938,794.5787353515625,0.0,713.99267578125,676.923095703125,
2025-02-28 12:40:32.540028,814.7252807617188,809.4871826171875,806.2637329101562,175.6776580810547,749.047607421875,788.937744140625,
2025-02-28 12:40:32.540332,780.4761962890625,796.996337890625,789.7435913085938,0.0,919.4871826171875,1168.901123046875,
2025-02-28 12:40:32.540150,792.1611938476562,803.040283203125,798.2051391601562,988.3883056640625,794.1758422851562,956.1538696289062,
2025-02-28 12:40:32.540663,798.6080322265625,797.8021850585938,799.8168334960938,606.00732421875,983.9560546875,1349.81689453125,
2025-02-28 12:40:32.540866,819.5604248046875,800.6226806640625,799.010986328125,158.75457763671875,985.970703125,1025.054931640625,
2025-02-28 12:40:32.541017,797.8021850585938,788.937744140625,794.1758422851562,1075.018310546875,989.5970458984375,831.2454223632812,
2025-02-28 12:40:32.541521,800.2197875976562,792.5640869140625,800.6226806640625,389.23077392578125,697.87548828125,580.2197875976562,
2025-02-28 12:40:32.541277,786.1171875,781.2820434570312,800.6226806640625,0.0,858.2417602539062,679.7435913085938,
2025-02-28 12:40:32.541776,813.113525390625,802.2344360351562,805.4578857421875,34.652015686035156,616.08056640625,549.1941528320312,
2025-02-28 12:40:32.581765,801.025634765625,799.010986328125,803.8461303710938,1439.6702880859375,819.5604248046875,715.2014770507812,
2025-02-28 12:40:32.582187,780.4761962890625,781.6849975585938,792.1611938476562,140.62271118164062,909.010986328125,755.8974609375,
2025-02-28 12:40:32.583111,785.7142944335938,779.6703491210938,795.7875366210938,0.0,757.106201171875,693.4432373046875,
2025-02-28 12:40:32.584270,803.040283203125,800.6226806640625,807.069580078125,1204.3590087890625,886.0439453125,969.047607421875,
2025-02-28 12:40:32.584501,805.054931640625,809.084228515625,806.2637329101562,134.1758270263672,917.4725341796875,982.7472534179688,
2025-02-28 12:40:32.584938,787.7289428710938,795.7875366210938,799.8168334960938,695.054931640625,747.8388061523438,886.8497924804688,
2025-02-28 12:40:32.585310,785.7142944335938,786.1171875,799.4139404296875,0.0,724.4688720703125,1003.2966918945312,
2025-02-28 12:40:32.585512,803.4432373046875,803.8461303710938,805.8607788085938,730.5128173828125,713.5897216796875,835.2747192382812,
2025-02-28 12:40:32.585739,805.4578857421875,814.3223266601562,803.8461303710938,170.8424835205078,680.1465454101562,622.930419921875,
2025-02-28 12:40:32.586042,793.3699340820312,798.6080322265625,803.040283203125,1000.879150390625,769.5970458984375,667.6557006835938,
2025-02-28 12:40:32.586292,787.3259887695312,790.5494384765625,805.8607788085938,0.0,901.7582397460938,661.6116943359375,
2025-02-28 12:40:32.586460,815.93408203125,798.6080322265625,811.90478515625,602.7838745117188,862.2710571289062,663.6264038085938,
2025-02-28 12:40:32.626763,820.3662719726562,808.2783813476562,811.90478515625,156.73992919921875,780.0732421875,729.3040161132812,
2025-02-28 12:40:32.627313,796.996337890625,793.7728881835938,792.5640869140625,1145.128173828125,850.5860595703125,755.8974609375,
2025-02-28 12:40:32.629222,792.967041015625,788.937744140625,790.1465454101562,0.0,875.5677490234375,699.89013671875,
2025-02-28 12:40:32.629388,796.1904907226562,804.6520385742188,805.8607788085938,357.80218505859375,875.5677490234375,974.6886596679688,
2025-02-28 12:40:32.629670,810.6959838867188,804.6520385742188,809.4871826171875,4.835165023803711,839.3040161132812,992.8204956054688,
2025-02-28 12:40:32.630813,794.5787353515625,794.981689453125,799.4139404296875,1523.076904296875,806.6666870117188,904.1758422851562,
2025-02-28 12:40:32.630924,764.7619018554688,794.1758422851562,795.3846435546875,261.9047546386719,783.6996459960938,1058.09521484375,
2025-02-28 12:40:32.631078,787.3259887695312,794.1758422851562,807.4725341796875,0.0,809.89013671875,1081.4652099609375,
2025-02-28 12:40:32.631250,825.2014770507812,802.2344360351562,815.1282348632812,1105.238037109375,927.5457763671875,1003.6996459960938,
2025-02-28 12:40:32.631532,819.1575317382812,807.87548828125,807.87548828125,161.57508850097656,948.4981689453125,870.7326049804688,
2025-02-28 12:40:32.631738,778.05859375,797.8021850585938,804.2490844726562,794.981689453125,861.062255859375,665.6410522460938,
2025-02-28 12:40:32.631968,772.8204956054688,789.3406372070312,809.084228515625,0.0,673.2966918945312,440.80584716796875,
2025-02-28 12:40:32.673341,805.4578857421875,801.025634765625,817.5457763671875,640.2564086914062,653.9560546875,569.7435913085938,
2025-02-28 12:40:32.673734,807.4725341796875,807.87548828125,817.5457763671875,155.12820434570312,686.996337890625,642.2710571289062,
2025-02-28 12:40:32.675270,784.1025390625,796.996337890625,812.3076782226562,1018.2051391601562,710.3662719726562,611.2454223632812,
2025-02-28 12:40:32.675488,778.05859375,791.7582397460938,810.6959838867188,0.0,813.91943359375,651.5384521484375,
2025-02-28 12:40:32.676151,830.4395751953125,827.6190185546875,830.8424682617188,131.75823974609375,814.3223266601562,1025.054931640625,
2025-02-28 12:40:32.675815,804.6520385742188,806.2637329101562,821.97802734375,544.3589477539062,840.10986328125,739.3773193359375,
2025-02-28 12:40:32.676445,792.967041015625,815.93408203125,825.2014770507812,1220.0732421875,781.6849975585938,1102.4176025390625,
2025-02-28 12:40:32.676707,763.1502075195312,800.6226806640625,832.05126953125,0.0,688.2051391601562,811.5018310546875,
2025-02-28 12:40:32.677066,774.8351440429688,812.7106323242188,844.5421142578125,180.91575622558594,682.1611938476562,699.89013671875,
2025-02-28 12:40:32.677316,776.0439453125,822.7838745117188,865.4945068359375,1506.959716796875,903.3699340820312,839.7069702148438,
2025-02-28 12:40:32.677719,751.062255859375,828.02197265625,875.970703125,1562.967041015625,833.2600708007812,675.3113403320312,
2025-02-28 12:40:32.678195,701.90478515625,830.8424682617188,872.7472534179688,318.71795654296875,605.6043701171875,374.3223571777344,
2025-02-28 12:40:32.717074,691.025634765625,841.7216186523438,875.5677490234375,0.0,655.970703125,505.6776428222656,
2025-02-28 12:40:32.717771,701.5018310546875,865.4945068359375,886.8497924804688,879.5970458984375,651.1355590820312,564.1025390625,
2025-02-28 12:40:32.718169,684.1758422851562,884.029296875,891.6849975585938,173.26007080078125,809.89013671875,755.8974609375,
2025-02-28 12:40:32.718528,624.945068359375,885.2380981445312,877.1795043945312,905.3846435546875,900.5494384765625,1025.054931640625,
2025-02-28 12:40:32.719205,613.2600708007812,909.010986328125,852.1978149414062,620.915771484375,784.5054931640625,929.5604248046875,
2025-02-28 12:40:32.718877,592.7106323242188,890.4761962890625,860.2564086914062,0.0,829.2307739257812,937.6190185546875,
2025-02-28 12:40:32.719505,617.6923217773438,921.5018310546875,840.5128173828125,155.12820434570312,818.3516235351562,1195.4945068359375,
2025-02-28 12:40:32.721493,586.2637329101562,914.6520385742188,814.3223266601562,1022.2344360351562,879.5970458984375,998.4615478515625,
2025-02-28 12:40:32.721649,581.8314819335938,904.5787353515625,788.1318969726562,0.0,660.8058471679688,504.8717956542969,
2025-02-28 12:40:32.721881,628.5714111328125,915.054931640625,774.8351440429688,437.9853515625,693.040283203125,539.120849609375,
2025-02-28 12:40:32.722111,661.2088012695312,923.113525390625,752.2710571289062,87.03296661376953,815.1282348632812,913.040283203125,
2025-02-28 12:40:32.722512,672.893798828125,904.5787353515625,711.1721801757812,1234.981689453125,735.3479614257812,842.12451171875,
2025-02-28 12:40:32.762529,711.1721801757812,896.923095703125,699.4871826171875,0.0,741.3919677734375,564.1025390625,
2025-02-28 12:40:32.762934,744.2124633789062,899.3406372070312,694.2490844726562,83.4065933227539,890.0732421875,740.989013671875,
2025-02-28 12:40:32.764503,773.2234497070312,891.2820434570312,673.6996459960938,1340.5494384765625,951.7216186523438,819.5604248046875,
2025-02-28 12:40:32.764745,786.1171875,878.3883056640625,655.5677490234375,24.578754425048828,917.069580078125,749.4505615234375,
2025-02-28 12:40:32.765078,787.3259887695312,859.047607421875,634.2124633789062,461.3553161621094,745.8241577148438,613.6630249023438,
2025-02-28 12:40:32.765404,827.2161254882812,862.2710571289062,628.1685180664062,0.0,698.6813354492188,841.7216186523438,
2025-02-28 12:40:32.765740,881.2088012695312,863.8828125,626.959716796875,844.5421142578125,848.1685180664062,1216.849853515625,
2025-02-28 12:40:32.766160,913.4432373046875,845.7509155273438,624.1392211914062,173.6630096435547,784.1025390625,900.1465454101562,
2025-02-28 12:40:32.766569,907.8021850585938,826.4102783203125,626.5567626953125,923.113525390625,753.8828125,622.930419921875,
2025-02-28 12:40:32.767147,928.3516235351562,812.3076782226562,638.6447143554688,0.0,900.1465454101562,842.5274658203125,
2025-02-28 12:40:32.767917,971.4652099609375,809.084228515625,655.970703125,614.8717651367188,908.6080322265625,894.5054931640625,
2025-02-28 12:40:32.769305,978.7179565429688,803.4432373046875,670.0732421875,155.5311279296875,758.3150024414062,674.5054931640625,
2025-02-28 12:40:32.827288,959.7802124023438,786.923095703125,672.893798828125,1045.6043701171875,780.4761962890625,699.084228515625,
2025-02-28 12:40:32.827820,940.8424682617188,769.1941528320312,675.7142944335938,0.0,792.5640869140625,837.2893676757812,
2025-02-28 12:40:32.828355,956.5567626953125,769.5970458984375,694.2490844726562,431.1355285644531,758.7179565429688,730.10986328125,
2025-02-28 12:40:32.829454,978.7179565429688,781.2820434570312,701.098876953125,60.43955993652344,786.1171875,863.8828125,
2025-02-28 12:40:32.830072,957.3626098632812,772.4176025390625,701.90478515625,1399.7802734375,720.4395751953125,933.5897216796875,
2025-02-28 12:40:32.831119,937.2161254882812,763.1502075195312,716.8131713867188,57.21611785888672,923.91943359375,1279.3040771484375,
2025-02-28 12:40:32.830685,929.1575317382812,757.5091552734375,712.7838745117188,78.97435760498047,823.1868286132812,1013.7728881835938,
2025-02-28 12:40:32.831558,956.1538696289062,768.7911987304688,725.6776733398438,1300.6593017578125,842.12451171875,967.4359130859375,
2025-02-28 12:40:32.831889,958.1685180664062,767.5823974609375,730.5128173828125,124.5054931640625,686.5933837890625,589.084228515625,
2025-02-28 12:40:32.833964,918.2783813476562,759.5238037109375,731.3186645507812,689.010986328125,867.106201171875,737.7655639648438,
2025-02-28 12:40:32.834573,904.981689453125,765.1648559570312,759.9267578125,770.4029541015625,889.6703491210938,754.6886596679688,
2025-02-28 12:40:32.834233,891.6849975585938,756.7033081054688,744.6153564453125,0.0,1003.6996459960938,815.1282348632812,
2025-02-28 12:40:32.873374,903.3699340820312,763.1502075195312,761.1355590820312,179.3040313720703,884.8351440429688,799.010986328125,
2025-02-28 12:40:32.873856,883.2234497070312,751.4652099609375,759.9267578125,994.029296875,848.974365234375,724.4688720703125,
2025-02-28 12:40:32.874291,874.7619018554688,752.2710571289062,763.5531005859375,0.0,731.7216186523438,501.6483459472656,
2025-02-28 12:40:32.874752,894.1025390625,777.2527465820312,775.6410522460938,601.97802734375,783.6996459960938,723.2600708007812,
2025-02-28 12:40:32.875497,902.5640869140625,790.5494384765625,781.2820434570312,156.73992919921875,950.915771484375,1100.805908203125,
2025-02-28 12:40:32.875826,884.4322509765625,778.05859375,780.879150390625,1139.084228515625,871.5384521484375,1081.8681640625,
2025-02-28 12:40:32.876121,863.076904296875,767.5823974609375,779.2673950195312,0.0,772.8204956054688,1035.93408203125,
2025-02-28 12:40:32.876733,869.120849609375,778.8644409179688,791.3552856445312,9.267398834228516,799.8168334960938,725.6776733398438,
2025-02-28 12:40:32.876440,865.8974609375,774.8351440429688,782.893798828125,340.0732727050781,811.098876953125,840.915771484375,
2025-02-28 12:40:32.877398,839.7069702148438,767.5823974609375,791.7582397460938,209.12088012695312,560.0732421875,401.3186950683594,
2025-02-28 12:40:32.877107,851.7948608398438,774.8351440429688,791.3552856445312,1478.3516845703125,788.5347900390625,729.3040161132812,
2025-02-28 12:40:32.877980,842.5274658203125,770.8058471679688,798.6080322265625,0.0,485.1282043457031,300.1831359863281,
2025-02-28 12:40:32.917628,861.4652099609375,788.937744140625,811.098876953125,1059.7069091796875,713.99267578125,635.018310546875,
2025-02-28 12:40:32.918017,872.3442993164062,792.967041015625,811.90478515625,166.00732421875,897.7289428710938,869.5238037109375,
2025-02-28 12:40:32.918571,833.6630249023438,776.8497924804688,800.6226806640625,796.5933837890625,811.098876953125,619.7069702148438,
2025-02-28 12:40:32.919620,810.2930297851562,770.8058471679688,802.6373901367188,0.0,693.040283203125,606.8131713867188,
2025-02-28 12:40:32.919850,839.3040161132812,786.1171875,813.113525390625,683.7728881835938,753.4798583984375,974.6886596679688,
2025-02-28 12:40:32.920117,851.3919677734375,790.952392578125,817.1428833007812,167.61904907226562,837.6923217773438,1108.864501953125,
2025-02-28 12:40:32.921286,826.8131713867188,777.6557006835938,808.6813354492188,1010.5494384765625,750.6593627929688,930.3662719726562,
2025-02-28 12:40:32.921530,809.084228515625,777.6557006835938,803.4432373046875,0.0,536.3003540039062,628.974365234375,
2025-02-28 12:40:32.921826,817.5457763671875,792.967041015625,811.5018310546875,575.7875366210938,715.6043701171875,731.7216186523438,
2025-02-28 12:40:32.922593,828.4249267578125,800.6226806640625,817.5457763671875,144.65200805664062,893.6996459960938,781.2820434570312,
2025-02-28 12:40:32.922824,811.90478515625,794.5787353515625,817.1428833007812,1195.091552734375,853.4066162109375,723.6630249023438,
2025-02-28 12:40:32.924472,794.1758422851562,788.5347900390625,815.1282348632812,0.0,759.120849609375,583.040283203125,
2025-02-28 12:40:32.963583,806.2637329101562,795.7875366210938,818.3516235351562,191.39193725585938,610.03662109375,466.5934143066406,
2025-02-28 12:40:32.964244,832.05126953125,805.8607788085938,822.3809814453125,1499.3040771484375,647.5091552734375,583.4432373046875,
2025-02-28 12:40:32.965842,820.3662719726562,795.7875366210938,819.1575317382812,1599.230712890625,705.93408203125,628.1685180664062,
2025-02-28 12:40:32.966072,795.7875366210938,781.2820434570312,809.4871826171875,354.981689453125,761.5384521484375,615.2747192382812,
2025-02-28 12:40:32.966360,794.5787353515625,786.5201416015625,808.6813354492188,0.0,689.8168334960938,548.3883056640625,
2025-02-28 12:40:32.966807,817.1428833007812,808.2783813476562,817.5457763671875,947.2893676757812,666.8497924804688,848.974365234375,
2025-02-28 12:40:32.967139,826.00732421875,812.3076782226562,816.7399291992188,172.85714721679688,639.4505615234375,973.076904296875,
2025-02-28 12:40:32.967547,800.6226806640625,792.5640869140625,806.6666870117188,845.3479614257812,635.018310546875,614.06591796875,
2025-02-28 12:40:32.967832,794.1758422851562,787.7289428710938,803.8461303710938,0.0,863.076904296875,840.915771484375,
2025-02-28 12:40:32.968088,824.7985229492188,802.2344360351562,813.5164794921875,639.8534545898438,890.879150390625,1038.3516845703125,
2025-02-28 12:40:32.968387,829.2307739257812,803.4432373046875,821.5750732421875,156.3369903564453,852.1978149414062,744.2124633789062,
2025-02-28 12:40:32.968627,790.5494384765625,791.3552856445312,820.3662719726562,1020.2197875976562,920.2930297851562,676.1171875,
2025-02-28 12:40:33.012551,794.981689453125,787.7289428710938,811.90478515625,0.0,906.5933837890625,727.2893676757812,
2025-02-28 12:40:33.012983,832.05126953125,806.6666870117188,811.098876953125,478.27838134765625,701.5018310546875,586.2637329101562,
2025-02-28 12:40:33.013532,838.901123046875,820.7692260742188,817.1428833007812,100.32967376708984,668.8644409179688,577.8021850585938,
2025-02-28 12:40:33.014497,816.3369750976562,805.4578857421875,814.3223266601562,1284.13916015625,721.6483764648438,852.1978149414062,
2025-02-28 12:40:33.014943,792.5640869140625,786.5201416015625,806.2637329101562,0.0,600.7692260742188,830.4395751953125,
2025-02-28 12:40:33.015173,813.5164794921875,788.5347900390625,809.4871826171875,157.14285278320312,694.6520385742188,882.4176025390625,
2025-02-28 12:40:33.015470,837.2893676757812,803.040283203125,817.94873046875,1438.05859375,722.4542236328125,976.7033081054688,
2025-02-28 12:40:33.015762,819.96337890625,799.010986328125,817.5457763671875,43.11355209350586,721.2454223632812,759.9267578125,
2025-02-28 12:40:33.016104,786.1171875,780.4761962890625,811.098876953125,516.959716796875,768.7911987304688,599.96337890625,
2025-02-28 12:40:33.016386,776.4468994140625,785.3113403320312,808.6813354492188,0.0,770.4029541015625,584.6520385742188,
2025-02-28 12:40:33.016739,797.3992919921875,802.2344360351562,815.93408203125,855.8241577148438,847.3626098632812,690.6226806640625,
2025-02-28 12:40:33.016987,803.040283203125,801.025634765625,815.5311279296875,181.72161865234375,973.4798583984375,986.7765502929688,
2025-02-28 12:40:33.115462,792.967041015625,792.5640869140625,809.89013671875,961.7948608398438,1016.5933837890625,985.1648559570312,
2025-02-28 12:40:33.118224,796.996337890625,792.1611938476562,816.7399291992188,0.0,940.8424682617188,762.7472534179688,
2025-02-28 12:40:33.118499,818.7545776367188,790.952392578125,823.1868286132812,610.03662109375,791.3552856445312,657.5823974609375,
2025-02-28 12:40:33.118897,816.7399291992188,801.4285888671875,819.5604248046875,159.56044006347656,845.3479614257812,726.886474609375,
2025-02-28 12:40:33.119229,771.2088012695312,801.8314819335938,810.6959838867188,1029.89013671875,840.10986328125,736.1538696289062,
2025-02-28 12:40:33.119611,753.4798583984375,797.3992919921875,809.4871826171875,0.0,744.6153564453125,844.5421142578125,
2025-02-28 12:40:33.119983,788.937744140625,808.2783813476562,812.7106323242188,464.981689453125,797.3992919921875,1125.3846435546875,
2025-02-28 12:40:33.120624,792.1611938476562,801.025634765625,813.5164794921875,1347.80224609375,798.6080322265625,705.1282348632812,
2025-02-28 12:40:33.120395,807.87548828125,809.4871826171875,808.2783813476562,84.61538696289062,808.6813354492188,960.1831665039062,
2025-02-28 12:40:33.121211,782.4908447265625,800.6226806640625,823.99267578125,45.93406677246094,862.2710571289062,705.1282348632812,
2025-02-28 12:40:33.121542,806.6666870117188,809.4871826171875,821.1721801757812,1303.076904296875,932.3809814453125,843.7362670898438,
2025-02-28 12:40:33.120969,775.2380981445312,794.1758422851562,821.1721801757812,43.11355209350586,790.1465454101562,641.8681030273438,
2025-02-28 12:40:33.124247,814.3223266601562,803.4432373046875,813.113525390625,78.16849517822266,779.2673950195312,699.084228515625,
2025-02-28 12:40:33.124523,794.1758422851562,788.937744140625,812.7106323242188,575.7875366210938,558.8644409179688,545.1648559570312,
2025-02-28 12:40:33.125053,800.6226806640625,794.5787353515625,813.5164794921875,749.4505615234375,635.8241577148438,796.5933837890625,
2025-02-28 12:40:33.124757,779.6703491210938,784.1025390625,811.90478515625,0.0,588.2783813476562,644.6886596679688,
2025-02-28 12:40:33.125518,817.5457763671875,803.8461303710938,812.7106323242188,167.61904907226562,673.2966918945312,810.2930297851562,
2025-02-28 12:40:33.126286,788.5347900390625,795.7875366210938,803.8461303710938,994.4322509765625,703.113525390625,837.2893676757812,
2025-02-28 12:40:33.126479,772.4176025390625,792.967041015625,803.8461303710938,0.0,727.6923217773438,996.0439453125,
2025-02-28 12:40:33.126826,798.2051391601562,803.4432373046875,815.5311279296875,606.00732421875,739.7802124023438,796.5933837890625,
2025-02-28 12:40:33.127498,813.113525390625,807.069580078125,821.5750732421875,157.54579162597656,842.5274658203125,744.2124633789062,
2025-02-28 12:40:33.128055,788.937744140625,798.2051391601562,816.3369750976562,1083.8828125,844.5421142578125,698.2783813476562,
2025-02-28 12:40:33.128780,776.8497924804688,784.908447265625,813.113525390625,0.0,745.018310546875,552.0146484375,
2025-02-28 12:40:33.129026,796.996337890625,796.5933837890625,812.3076782226562,355.78753662109375,737.7655639648438,599.5604248046875,
2025-02-28 12:40:33.143541,814.3223266601562,815.1282348632812,809.4871826171875,4.432234287261963,846.1538696289062,761.5384521484375,
2025-02-28 12:40:33.143750,799.010986328125,808.6813354492188,806.2637329101562,1491.6483154296875,1010.952392578125,911.025634765625,
2025-02-28 12:40:33.144948,775.6410522460938,798.6080322265625,803.040283203125,215.970703125,867.5091552734375,663.2234497070312,
2025-02-28 12:40:33.147685,785.7142944335938,799.010986328125,805.8607788085938,0.0,655.1648559570312,423.4798583984375,
2025-02-28 12:40:33.147823,816.3369750976562,813.91943359375,820.7692260742188,1100.0,797.3992919921875,835.2747192382812,
2025-02-28 12:40:33.148236,811.5018310546875,811.098876953125,822.7838745117188,159.1575164794922,815.1282348632812,1136.6666259765625,
2025-02-28 12:40:33.148417,788.5347900390625,794.1758422851562,813.113525390625,756.7033081054688,688.2051391601562,1018.6080322265625,
2025-02-28 12:40:33.148952,788.937744140625,795.7875366210938,809.4871826171875,0.0,774.4322509765625,803.4432373046875,
2025-02-28 12:40:33.149194,801.025634765625,811.90478515625,815.1282348632812,699.084228515625,904.1758422851562,766.7765502929688,
2025-02-28 12:40:33.149494,804.2490844726562,815.93408203125,820.7692260742188,169.23077392578125,948.4981689453125,883.6264038085938,
2025-02-28 12:40:33.149616,790.952392578125,797.3992919921875,809.084228515625,1007.7289428710938,887.2527465820312,724.8717651367188,
2025-02-28 12:40:33.149778,786.5201416015625,791.3552856445312,801.4285888671875,0.0,929.5604248046875,693.4432373046875,
2025-02-28 12:40:33.189141,809.4871826171875,811.5018310546875,816.7399291992188,601.5750732421875,1045.201416015625,893.2966918945312,
2025-02-28 12:40:33.189502,830.8424682617188,823.1868286132812,827.6190185546875,154.72528076171875,1036.7398681640625,973.8828125,
2025-02-28 12:40:33.190209,817.94873046875,801.025634765625,813.5164794921875,1169.3040771484375,914.6520385742188,747.4359130859375,
2025-02-28 12:40:33.192178,797.3992919921875,794.981689453125,805.8607788085938,0.0,892.4908447265625,809.4871826171875,
2025-02-28 12:40:33.192305,802.2344360351562,811.098876953125,813.113525390625,288.0952453613281,878.7911987304688,1001.2820434570312,
2025-02-28 12:40:33.192600,811.5018310546875,811.098876953125,810.2930297851562,1589.96337890625,867.106201171875,1101.208740234375,
2025-02-28 12:40:33.193092,800.2197875976562,806.2637329101562,806.2637329101562,1585.128173828125,812.3076782226562,1170.915771484375,
2025-02-28 12:40:33.193369,778.05859375,795.3846435546875,807.069580078125,353.77288818359375,776.8497924804688,940.8424682617188,
2025-02-28 12:40:33.193674,774.8351440429688,790.5494384765625,810.2930297851562,0.0,906.996337890625,812.3076782226562,
2025-02-28 12:40:33.193926,791.7582397460938,799.010986328125,819.96337890625,990.0,951.7216186523438,904.5787353515625,
2025-02-28 12:40:33.194141,805.4578857421875,797.3992919921875,819.1575317382812,172.45420837402344,916.2637329101562,850.989013671875,
2025-02-28 12:40:33.194365,782.893798828125,790.1465454101562,811.5018310546875,834.06591796875,772.8204956054688,569.7435913085938,
2025-02-28 12:40:33.236561,765.1648559570312,788.937744140625,812.3076782226562,0.0,677.7289428710938,513.3333129882812,
2025-02-28 12:40:33.239413,801.025634765625,798.2051391601562,810.2930297851562,635.4212646484375,726.08056640625,639.8534545898438,
2025-02-28 12:40:33.239655,815.93408203125,805.4578857421875,808.6813354492188,158.35165405273438,699.89013671875,595.1282348632812,
2025-02-28 12:40:33.239988,783.6996459960938,795.7875366210938,812.3076782226562,1016.5933837890625,748.6447143554688,547.9853515625,
2025-02-28 12:40:33.240311,766.3735961914062,791.3552856445312,815.1282348632812,0.0,817.1428833007812,643.8828125,
2025-02-28 12:40:33.242250,796.996337890625,807.069580078125,815.5311279296875,566.923095703125,852.6007080078125,971.8681030273438,
2025-02-28 12:40:33.242425,815.5311279296875,811.098876953125,816.3369750976562,137.39926147460938,943.2600708007812,1233.3699951171875,
2025-02-28 12:40:33.242756,788.937744140625,798.2051391601562,815.5311279296875,1249.89013671875,892.087890625,896.1171875,
2025-02-28 12:40:33.243197,776.0439453125,794.981689453125,815.1282348632812,0.0,870.7326049804688,652.3442993164062,
2025-02-28 12:40:33.244354,800.2197875976562,805.054931640625,815.93408203125,199.45054626464844,798.2051391601562,843.7362670898438,
2025-02-28 12:40:33.244823,821.1721801757812,808.2783813476562,815.5311279296875,1504.13916015625,794.981689453125,898.1318969726562,
2025-02-28 12:40:33.245197,811.5018310546875,798.6080322265625,812.3076782226562,1640.7325439453125,913.4432373046875,726.886474609375,
2025-02-28 12:40:33.282588,780.4761962890625,783.2966918945312,804.2490844726562,431.5384521484375,790.952392578125,641.062255859375,
2025-02-28 12:40:33.282964,785.7142944335938,789.7435913085938,802.6373901367188,0.0,857.032958984375,717.6190185546875,
2025-02-28 12:40:33.283607,821.97802734375,807.4725341796875,812.3076782226562,915.8607788085938,862.2710571289062,763.5531005859375,
2025-02-28 12:40:33.284415,822.7838745117188,808.2783813476562,817.1428833007812,183.73626708984375,845.3479614257812,984.3589477539062,
2025-02-28 12:40:33.284831,790.952392578125,788.1318969726562,805.8607788085938,946.08056640625,801.4285888671875,994.029296875,
2025-02-28 12:40:33.285086,784.5054931640625,783.2966918945312,801.8314819335938,0.0,729.7069702148438,1058.4981689453125,
2025-02-28 12:40:33.285451,822.3809814453125,804.6520385742188,802.6373901367188,617.6923217773438,826.00732421875,1142.3077392578125,
2025-02-28 12:40:33.285960,846.959716796875,809.89013671875,808.2783813476562,159.56044006347656,824.3956298828125,778.05859375,
2025-02-28 12:40:33.286394,801.4285888671875,790.1465454101562,824.7985229492188,1021.025634765625,742.1978149414062,608.8278198242188,
2025-02-28 12:40:33.286744,756.7033081054688,778.8644409179688,819.5604248046875,0.0,762.3442993164062,598.3516235351562,
2025-02-28 12:40:33.286983,754.2857055664062,790.1465454101562,815.93408203125,450.0732727050781,822.7838745117188,603.5897216796875,
2025-02-28 12:40:33.287252,770.4029541015625,804.2490844726562,825.2014770507812,74.54212188720703,775.6410522460938,616.886474609375,
2025-02-28 12:40:33.327941,750.2564086914062,792.5640869140625,834.06591796875,1360.2930908203125,772.0146484375,849.7802124023438,
2025-02-28 12:40:33.328500,722.05126953125,786.5201416015625,830.8424682617188,51.978023529052734,781.6849975585938,734.5421142578125,
2025-02-28 12:40:33.329672,733.7362670898438,801.4285888671875,829.6337280273438,41.5018310546875,747.4359130859375,565.7142944335938,
2025-02-28 12:40:33.330013,744.6153564453125,806.2637329101562,834.8717651367188,1277.6922607421875,818.3516235351562,721.6483764648438,
2025-02-28 12:40:33.330430,747.032958984375,801.8314819335938,826.00732421875,117.65567779541016,920.2930297851562,832.8571166992188,
2025-02-28 12:40:33.330960,734.945068359375,794.1758422851562,821.5750732421875,653.9560546875,952.12451171875,1041.172119140625,
2025-02-28 12:40:33.331863,741.7948608398438,792.1611938476562,817.1428833007812,0.0,811.90478515625,1024.6519775390625,
2025-02-28 12:40:33.333346,776.8497924804688,795.7875366210938,820.7692260742188,773.6264038085938,606.8131713867188,661.2088012695312,
2025-02-28 12:40:33.333536,782.893798828125,796.996337890625,823.1868286132812,177.2893829345703,735.7509155273438,695.4578857421875,
2025-02-28 12:40:33.333990,761.5384521484375,788.5347900390625,814.7252807617188,0.0,807.4725341796875,722.4542236328125,
2025-02-28 12:40:33.333754,764.3589477539062,794.1758422851562,816.7399291992188,991.6116943359375,902.5640869140625,775.2380981445312,
2025-02-28 12:40:33.334737,784.908447265625,799.8168334960938,819.5604248046875,604.7985229492188,943.2600708007812,929.5604248046875,
2025-02-28 12:40:33.372906,800.6226806640625,805.054931640625,821.97802734375,159.56044006347656,972.6740112304688,939.2307739257812,
2025-02-28 12:40:33.373356,771.6116943359375,786.1171875,807.069580078125,1088.3150634765625,875.5677490234375,771.6116943359375,
2025-02-28 12:40:33.374279,793.7728881835938,795.3846435546875,811.098876953125,418.24176025390625,821.97802734375,1083.8828125,
2025-02-28 12:40:33.373822,762.7472534179688,780.4761962890625,798.2051391601562,0.0,908.2051391601562,827.2161254882812,
2025-02-28 12:40:33.374831,808.6813354492188,803.4432373046875,820.7692260742188,55.20146560668945,847.3626098632812,1189.4505615234375,
2025-02-28 12:40:33.375289,799.8168334960938,796.5933837890625,812.7106323242188,1423.5531005859375,832.05126953125,1124.17578125,
2025-02-28 12:40:33.375719,782.4908447265625,778.4615478515625,802.2344360351562,151.09890747070312,747.8388061523438,1005.7142944335938,
2025-02-28 12:40:33.376119,791.7582397460938,784.1025390625,805.8607788085938,0.0,846.1538696289062,840.915771484375,
2025-02-28 12:40:33.376399,804.2490844726562,799.010986328125,813.91943359375,1137.87548828125,760.3296508789062,671.2820434570312,
2025-02-28 12:40:33.376682,797.8021850585938,797.8021850585938,809.89013671875,138.2051239013672,694.6520385742188,625.7509155273438,
2025-02-28 12:40:33.376924,777.6557006835938,794.1758422851562,801.025634765625,697.4725341796875,804.6520385742188,620.10986328125,
2025-02-28 12:40:33.377116,771.2088012695312,792.967041015625,803.4432373046875,0.0,846.1538696289062,641.4652099609375,
2025-02-28 12:40:33.417036,801.4285888671875,799.010986328125,812.7106323242188,697.069580078125,763.1502075195312,659.1941528320312,
2025-02-28 12:40:33.421477,812.7106323242188,803.8461303710938,810.2930297851562,163.58973693847656,872.3442993164062,810.2930297851562,
2025-02-28 12:40:33.422156,780.4761962890625,794.1758422851562,803.040283203125,1009.3406372070312,925.1282348632812,775.2380981445312,
2025-02-28 12:40:33.422504,763.9560546875,790.5494384765625,806.2637329101562,0.0,806.2637329101562,666.4468994140625,
2025-02-28 12:40:33.423479,818.3516235351562,808.6813354492188,814.7252807617188,154.3223419189453,579.4139404296875,815.93408203125,
2025-02-28 12:40:33.422889,799.010986328125,803.8461303710938,812.7106323242188,599.5604248046875,668.4615478515625,657.1795043945312,
2025-02-28 12:40:33.424036,790.952392578125,801.8314819335938,812.7106323242188,1153.5897216796875,616.4835205078125,953.7362670898438,
2025-02-28 12:40:33.424401,772.8204956054688,794.1758422851562,803.040283203125,0.0,616.886474609375,812.7106323242188,
2025-02-28 12:40:33.425313,798.2051391601562,795.7875366210938,798.6080322265625,275.6044006347656,606.8131713867188,624.5421142578125,
2025-02-28 12:40:33.427708,814.7252807617188,809.89013671875,802.6373901367188,1593.99267578125,684.1758422851562,635.018310546875,
2025-02-28 12:40:33.428067,795.7875366210938,802.6373901367188,804.6520385742188,1535.970703125,780.4761962890625,683.7728881835938,
2025-02-28 12:40:33.428394,781.6849975585938,790.5494384765625,803.040283203125,262.71063232421875,781.2820434570312,592.3076782226562,
2025-02-28 12:40:33.464939,791.3552856445312,796.1904907226562,801.8314819335938,0.0,790.1465454101562,637.8388061523438,
2025-02-28 12:40:33.465320,814.7252807617188,807.87548828125,813.113525390625,1060.915771484375,855.4212646484375,736.5567626953125,
2025-02-28 12:40:33.465479,818.7545776367188,810.6959838867188,815.1282348632812,170.43955993652344,719.6337280273438,692.6373901367188,
2025-02-28 12:40:33.465632,796.996337890625,797.3992919921875,804.2490844726562,823.1868286132812,698.2783813476562,857.4359130859375,
2025-02-28 12:40:33.465862,780.4761962890625,787.7289428710938,807.4725341796875,0.0,829.2307739257812,845.3479614257812,
2025-02-28 12:40:33.466239,800.6226806640625,809.084228515625,810.6959838867188,666.4468994140625,923.5164794921875,1056.08056640625,
2025-02-28 12:40:33.466482,820.7692260742188,817.1428833007812,805.4578857421875,165.2014617919922,875.5677490234375,1245.86083984375,
2025-02-28 12:40:33.466744,801.025634765625,795.3846435546875,806.2637329101562,1012.5640869140625,736.1538696289062,874.7619018554688,
2025-02-28 12:40:33.466909,788.1318969726562,796.996337890625,807.069580078125,0.0,805.8607788085938,853.4066162109375,
2025-02-28 12:40:33.467315,818.3516235351562,804.6520385742188,813.91943359375,138.60806274414062,812.3076782226562,680.952392578125,
2025-02-28 12:40:33.467091,808.2783813476562,807.87548828125,809.4871826171875,564.1025390625,891.2820434570312,839.3040161132812,
2025-02-28 12:40:33.467501,793.7728881835938,790.952392578125,807.069580078125,1226.923095703125,741.3919677734375,603.5897216796875,
2025-02-28 12:40:33.506641,785.7142944335938,788.937744140625,796.1904907226562,0.0,824.3956298828125,665.6410522460938,
2025-02-28 12:40:33.506740,798.6080322265625,799.010986328125,805.054931640625,224.029296875,876.7765502929688,758.3150024414062,
2025-02-28 12:40:33.508229,809.084228515625,809.084228515625,815.93408203125,1524.2857666015625,859.8534545898438,762.7472534179688,
2025-02-28 12:40:33.508312,798.2051391601562,802.6373901367188,810.2930297851562,1638.3150634765625,768.7911987304688,645.091552734375,
2025-02-28 12:40:33.508480,776.4468994140625,791.3552856445312,806.2637329101562,430.3296813964844,777.2527465820312,661.6116943359375,
2025-02-28 12:40:33.508572,782.893798828125,794.5787353515625,804.2490844726562,0.0,762.3442993164062,881.6116943359375,
2025-02-28 12:40:33.508698,808.6813354492188,804.6520385742188,807.069580078125,933.5897216796875,732.5274658203125,1138.2784423828125,
2025-02-28 12:40:33.508825,813.113525390625,795.7875366210938,810.6959838867188,180.5128173828125,804.2490844726562,973.4798583984375,
2025-02-28 12:40:33.508980,781.2820434570312,786.923095703125,801.4285888671875,906.1904907226562,812.3076782226562,694.6520385742188,
2025-02-28 12:40:33.509152,776.4468994140625,790.952392578125,793.7728881835938,0.0,801.025634765625,643.076904296875,
2025-02-28 12:40:33.509333,804.6520385742188,802.2344360351562,803.4432373046875,621.3186645507812,868.3150024414062,939.2307739257812,
2025-02-28 12:40:33.510794,815.5311279296875,808.6813354492188,808.2783813476562,156.73992919921875,902.5640869140625,1023.8461303710938,
2025-02-28 12:40:33.572233,802.6373901367188,794.981689453125,801.8314819335938,1021.025634765625,846.1538696289062,735.7509155273438,
2025-02-28 12:40:33.573112,792.5640869140625,784.908447265625,797.8021850585938,0.0,719.2307739257812,566.923095703125,
2025-02-28 12:40:33.573398,791.3552856445312,792.1611938476562,803.040283203125,459.3406677246094,600.7692260742188,485.1282043457031,
2025-02-28 12:40:33.575070,802.6373901367188,799.4139404296875,809.89013671875,81.79486846923828,624.945068359375,794.1758422851562,
2025-02-28 12:40:33.575201,803.4432373046875,796.996337890625,801.8314819335938,1343.77294921875,803.8461303710938,953.3333129882812,
2025-02-28 12:40:33.575479,787.3259887695312,790.5494384765625,794.981689453125,5.238095283508301,857.032958984375,966.6300659179688,
2025-02-28 12:40:33.575642,800.2197875976562,793.7728881835938,796.996337890625,141.025634765625,814.7252807617188,1122.1611328125,
2025-02-28 12:40:33.575944,814.3223266601562,806.2637329101562,799.4139404296875,1427.5823974609375,811.90478515625,902.967041015625,
2025-02-28 12:40:33.576287,809.4871826171875,800.2197875976562,803.8461303710938,57.21611785888672,726.4835205078125,614.8717651367188,
2025-02-28 12:40:33.576489,803.4432373046875,788.1318969726562,798.6080322265625,556.8497924804688,799.8168334960938,652.3442993164062,
2025-02-28 12:40:33.576759,792.1611938476562,793.7728881835938,786.923095703125,0.0,926.3369750976562,690.2197875976562,
2025-02-28 12:40:33.576984,808.2783813476562,805.054931640625,796.1904907226562,804.6520385742188,809.084228515625,572.967041015625,
2025-02-28 12:40:33.616576,805.4578857421875,803.8461303710938,808.2783813476562,177.2893829345703,752.2710571289062,681.7582397460938,
2025-02-28 12:40:33.617205,773.6264038085938,788.1318969726562,800.6226806640625,981.94140625,784.908447265625,823.5897216796875,
2025-02-28 12:40:33.617477,775.6410522460938,782.893798828125,792.5640869140625,0.0,799.8168334960938,693.4432373046875,
2025-02-28 12:40:33.619659,810.6959838867188,794.1758422851562,799.010986328125,605.2014770507812,832.4542236328125,680.5494384765625,
2025-02-28 12:40:33.619813,816.7399291992188,797.8021850585938,809.084228515625,158.75457763671875,954.1392211914062,892.087890625,
2025-02-28 12:40:33.620069,784.1025390625,788.937744140625,803.8461303710938,1093.150146484375,994.029296875,1134.2490234375,
2025-02-28 12:40:33.620431,770.8058471679688,776.8497924804688,798.2051391601562,0.0,717.6190185546875,903.7728881835938,
2025-02-28 12:40:33.620604,790.1465454101562,780.0732421875,802.2344360351562,401.3186950683594,678.937744140625,643.4798583984375,
2025-02-28 12:40:33.620980,809.89013671875,800.6226806640625,802.6373901367188,42.30769348144531,902.967041015625,792.1611938476562,
2025-02-28 12:40:33.621231,804.2490844726562,804.6520385742188,804.6520385742188,1444.5054931640625,994.8351440429688,966.6300659179688,
2025-02-28 12:40:33.621500,780.4761962890625,796.1904907226562,801.4285888671875,159.96336364746094,909.8168334960938,745.8241577148438,
2025-02-28 12:40:33.621762,784.1025390625,794.981689453125,798.6080322265625,0.0,790.952392578125,512.5274658203125,
2025-02-28 12:40:33.661156,813.113525390625,807.4725341796875,810.6959838867188,1173.7362060546875,664.4322509765625,576.5933837890625,
2025-02-28 12:40:33.665063,815.5311279296875,809.4871826171875,815.1282348632812,140.62271118164062,651.5384521484375,625.7509155273438,
2025-02-28 12:40:33.665290,789.3406372070312,790.952392578125,802.2344360351562,695.054931640625,728.4981689453125,571.7582397460938,
2025-02-28 12:40:33.665570,794.981689453125,798.2051391601562,803.4432373046875,0.0,793.7728881835938,774.029296875,
2025-02-28 12:40:33.665836,821.1721801757812,819.1575317382812,805.054931640625,762.3442993164062,812.7106323242188,1119.3406982421875,
2025-02-28 12:40:33.666347,823.99267578125,806.2637329101562,802.6373901367188,178.4981689453125,740.989013671875,1189.047607421875,
2025-02-28 12:40:33.666640,799.8168334960938,788.937744140625,800.6226806640625,1000.4761962890625,781.6849975585938,1058.09521484375,
2025-02-28 12:40:33.667016,771.2088012695312,788.937744140625,799.010986328125,0.0,890.0732421875,745.8241577148438,
2025-02-28 12:40:33.667388,780.4761962890625,803.4432373046875,805.054931640625,601.97802734375,835.2747192382812,677.3259887695312,
2025-02-28 12:40:33.667710,798.2051391601562,813.113525390625,805.4578857421875,157.54579162597656,681.7582397460938,604.7985229492188,
2025-02-28 12:40:33.668092,788.937744140625,800.2197875976562,802.6373901367188,1122.967041015625,774.029296875,620.5128173828125,
2025-02-28 12:40:33.668529,777.6557006835938,785.7142944335938,799.8168334960938,0.0,951.7216186523438,740.1831665039062,
2025-02-28 12:40:33.706753,796.5933837890625,792.967041015625,802.2344360351562,343.29669189453125,1039.157470703125,878.3883056640625,
2025-02-28 12:40:33.707075,814.3223266601562,810.6959838867188,806.2637329101562,1.6117216348648071,897.3259887695312,815.5311279296875,
2025-02-28 12:40:33.707482,792.967041015625,811.098876953125,803.040283203125,1499.7069091796875,816.3369750976562,690.6226806640625,
2025-02-28 12:40:33.710009,770.8058471679688,795.7875366210938,795.7875366210938,246.1904754638672,846.5567626953125,629.3773193359375,
2025-02-28 12:40:33.710163,770.4029541015625,794.1758422851562,794.1758422851562,0.0,700.6959838867188,603.99267578125,
2025-02-28 12:40:33.710359,797.3992919921875,804.6520385742188,801.8314819335938,1019.010986328125,622.12451171875,830.8424682617188,
2025-02-28 12:40:33.710706,810.2930297851562,806.2637329101562,805.054931640625,166.8131866455078,669.6703491210938,898.1318969726562,
2025-02-28 12:40:33.711066,800.6226806640625,792.1611938476562,794.1758422851562,805.8607788085938,760.3296508789062,898.937744140625,
2025-02-28 12:40:33.711278,808.2783813476562,788.5347900390625,797.3992919921875,0.0,762.3442993164062,755.4945068359375,
2025-02-28 12:40:33.711453,819.96337890625,805.4578857421875,803.8461303710938,657.5823974609375,805.054931640625,693.040283203125,
2025-02-28 12:40:33.711706,816.3369750976562,810.6959838867188,785.7142944335938,161.1721649169922,1001.2820434570312,879.1941528320312,
2025-02-28 12:40:33.712067,805.8607788085938,803.040283203125,764.7619018554688,1014.5787353515625,1029.084228515625,830.4395751953125,
2025-02-28 12:40:33.750080,803.8461303710938,790.1465454101562,765.1648559570312,0.0,796.1904907226562,604.3956298828125,
2025-02-28 12:40:33.750441,836.4835205078125,795.3846435546875,776.4468994140625,564.908447265625,772.4176025390625,668.8644409179688,
2025-02-28 12:40:33.751136,869.5238037109375,810.6959838867188,775.6410522460938,138.60806274414062,809.89013671875,674.908447265625,
2025-02-28 12:40:33.755357,846.5567626953125,799.4139404296875,768.3883056640625,1234.5787353515625,740.989013671875,734.5421142578125,
2025-02-28 12:40:33.755579,825.6043701171875,783.2966918945312,768.3883056640625,0.0,746.6300659179688,898.937744140625,
2025-02-28 12:40:33.755836,832.05126953125,790.5494384765625,774.4322509765625,256.26373291015625,772.8204956054688,947.6923217773438,
2025-02-28 12:40:33.756746,834.4688720703125,805.054931640625,784.908447265625,1572.234375,878.7911987304688,1199.120849609375,
2025-02-28 12:40:33.757054,823.5897216796875,796.5933837890625,780.879150390625,1593.99267578125,880.4029541015625,959.3773193359375,
2025-02-28 12:40:33.757383,811.90478515625,783.6996459960938,773.2234497070312,377.1428527832031,840.5128173828125,806.2637329101562,
2025-02-28 12:40:33.757873,817.1428833007812,788.937744140625,778.8644409179688,0.0,790.5494384765625,832.05126953125,
2025-02-28 12:40:33.758236,830.4395751953125,798.2051391601562,782.893798828125,925.93408203125,713.5897216796875,589.084228515625,
2025-02-28 12:40:33.758673,827.6190185546875,799.4139404296875,782.4908447265625,170.8424835205078,732.930419921875,600.7692260742188,
2025-02-28 12:40:33.862279,801.8314819335938,789.3406372070312,779.6703491210938,844.1392211914062,634.6153564453125,515.7509155273438,
2025-02-28 12:40:33.863751,799.010986328125,788.5347900390625,781.2820434570312,0.0,524.2124633789062,394.4688720703125,
2025-02-28 12:40:33.864140,820.7692260742188,801.8314819335938,789.3406372070312,628.5714111328125,694.2490844726562,530.2564086914062,
2025-02-28 12:40:33.864718,838.4981689453125,807.87548828125,789.3406372070312,155.5311279296875,777.2527465820312,622.930419921875,
2025-02-28 12:40:33.865732,795.3846435546875,790.952392578125,784.1025390625,0.0,787.3259887695312,855.4212646484375,
2025-02-28 12:40:33.865461,813.91943359375,797.3992919921875,781.6849975585938,1019.4139404296875,748.6447143554688,626.1538696289062,
2025-02-28 12:40:33.866020,814.3223266601562,803.8461303710938,791.3552856445312,535.4945068359375,776.4468994140625,1035.5311279296875,
2025-02-28 12:40:33.866339,828.8278198242188,811.5018310546875,795.7875366210938,124.1025619506836,833.6630249023438,909.8168334960938,
2025-02-28 12:40:33.866756,819.5604248046875,799.8168334960938,796.1904907226562,1269.6336669921875,816.3369750976562,719.2307739257812,
2025-02-28 12:40:33.867155,806.2637329101562,794.981689453125,786.923095703125,0.0,680.952392578125,521.3919677734375,
2025-02-28 12:40:33.867736,828.02197265625,797.3992919921875,790.952392578125,144.65200805664062,754.6886596679688,522.1978149414062,
2025-02-28 12:40:33.868144,845.3479614257812,806.2637329101562,801.4285888671875,1414.2857666015625,947.2893676757812,906.1904907226562,
2025-02-28 12:40:33.870663,830.8424682617188,812.7106323242188,798.6080322265625,64.46886444091797,996.0439453125,1031.90478515625,
2025-02-28 12:40:33.872445,800.6226806640625,804.2490844726562,784.5054931640625,556.8497924804688,922.3076782226562,781.2820434570312,
2025-02-28 12:40:33.873155,797.3992919921875,801.025634765625,785.7142944335938,0.0,867.912109375,660.0,
2025-02-28 12:40:33.873679,827.6190185546875,810.2930297851562,796.996337890625,842.930419921875,833.6630249023438,807.4725341796875,
2025-02-28 12:40:33.874144,830.03662109375,809.4871826171875,799.8168334960938,182.5274658203125,878.7911987304688,1142.3077392578125,
2025-02-28 12:40:33.875794,799.8168334960938,793.7728881835938,797.8021850585938,973.8828125,900.952392578125,1207.179443359375,
2025-02-28 12:40:33.875922,791.3552856445312,796.996337890625,796.1904907226562,0.0,872.7472534179688,1097.179443359375,
2025-02-28 12:40:33.876082,809.89013671875,807.87548828125,802.2344360351562,607.2161254882812,894.5054931640625,884.029296875,
2025-02-28 12:40:33.876567,816.3369750976562,803.8461303710938,796.5933837890625,1054.4688720703125,899.7435913085938,769.5970458984375,
2025-02-28 12:40:33.876338,829.6337280273438,809.89013671875,800.6226806640625,158.75457763671875,828.8278198242188,725.2747192382812,
2025-02-28 12:40:33.876862,788.5347900390625,799.010986328125,797.8021850585938,0.0,959.3773193359375,708.3516235351562,
2025-02-28 12:40:33.877138,809.4871826171875,801.8314819335938,802.6373901367188,411.79486083984375,817.1428833007812,607.6190185546875,
2025-02-28 12:40:33.905264,835.2747192382812,807.069580078125,803.040283203125,56.410255432128906,730.10986328125,657.1795043945312,
2025-02-28 12:40:33.905394,818.7545776367188,807.069580078125,797.3992919921875,1389.7069091796875,806.2637329101562,776.0439453125,
2025-02-28 12:40:33.907476,794.1758422851562,799.4139404296875,791.7582397460938,86.63003540039062,825.6043701171875,875.970703125,
2025-02-28 12:40:33.907586,800.6226806640625,799.8168334960938,793.7728881835938,1.6117216348648071,732.12451171875,688.2051391601562,
2025-02-28 12:40:33.907828,819.1575317382812,810.6959838867188,805.054931640625,1208.3883056640625,678.1318969726562,564.908447265625,
2025-02-28 12:40:33.907977,819.96337890625,811.098876953125,804.6520385742188,143.44322204589844,782.893798828125,874.3589477539062,
2025-02-28 12:40:33.908374,792.1611938476562,796.5933837890625,793.3699340820312,0.0,865.091552734375,955.7509155273438,
2025-02-28 12:40:33.908200,801.8314819335938,799.8168334960938,799.4139404296875,718.8278198242188,847.7655639648438,1149.157470703125,
2025-02-28 12:40:33.908624,810.2930297851562,806.6666870117188,793.3699340820312,762.3442993164062,847.3626098632812,751.4652099609375,
2025-02-28 12:40:33.908845,816.3369750976562,807.4725341796875,804.2490844726562,179.3040313720703,710.7692260742188,669.6703491210938,
2025-02-28 12:40:33.909067,798.2051391601562,794.5787353515625,797.8021850585938,990.4029541015625,728.4981689453125,561.2820434570312,
2025-02-28 12:40:33.909200,780.879150390625,791.7582397460938,792.967041015625,0.0,638.6447143554688,392.05126953125,
2025-02-28 12:40:33.948605,799.8168334960938,803.040283203125,805.054931640625,599.5604248046875,541.94140625,440.80584716796875,
2025-02-28 12:40:33.950256,813.91943359375,810.6959838867188,809.4871826171875,155.93406677246094,646.3003540039062,614.06591796875,
2025-02-28 12:40:33.950909,775.6410522460938,788.1318969726562,796.996337890625,0.0,775.2380981445312,800.6226806640625,
2025-02-28 12:40:33.950586,787.7289428710938,798.6080322265625,805.054931640625,1121.75830078125,757.5091552734375,657.5823974609375,
2025-02-28 12:40:33.951366,793.3699340820312,802.2344360351562,794.981689453125,364.24908447265625,761.5384521484375,1025.4578857421875,
2025-02-28 12:40:33.952019,813.5164794921875,811.5018310546875,799.8168334960938,2.8205127716064453,818.7545776367188,1164.06591796875,
2025-02-28 12:40:33.952310,796.1904907226562,803.4432373046875,803.040283203125,1527.912109375,888.8644409179688,1264.3956298828125,
2025-02-28 12:40:33.954073,781.2820434570312,794.981689453125,801.025634765625,268.3516540527344,764.7619018554688,841.7216186523438,
2025-02-28 12:40:33.954283,803.4432373046875,797.8021850585938,804.2490844726562,0.0,771.2088012695312,568.937744140625,
2025-02-28 12:40:33.954931,815.93408203125,806.2637329101562,806.6666870117188,1111.6849365234375,927.94873046875,809.4871826171875,
2025-02-28 12:40:33.955472,808.2783813476562,801.025634765625,802.2344360351562,155.5311279296875,923.113525390625,802.6373901367188,
2025-02-28 12:40:33.955900,785.7142944335938,792.5640869140625,790.952392578125,750.2564086914062,830.4395751953125,639.8534545898438,
2025-02-28 12:40:33.994090,778.8644409179688,795.3846435546875,794.981689453125,0.0,776.8497924804688,602.3809814453125,
2025-02-28 12:40:33.994523,802.6373901367188,802.2344360351562,805.8607788085938,662.8204956054688,700.2930297851562,619.3040161132812,
2025-02-28 12:40:33.995880,824.7985229492188,804.6520385742188,800.2197875976562,158.75457763671875,772.8204956054688,711.97802734375,
2025-02-28 12:40:33.996162,801.4285888671875,798.6080322265625,794.5787353515625,1013.7728881835938,909.4139404296875,757.5091552734375,
2025-02-28 12:40:33.996623,780.4761962890625,783.6996459960938,793.3699340820312,0.0,787.7289428710938,675.7142944335938,
2025-02-28 12:40:33.997474,794.1758422851562,793.3699340820312,798.6080322265625,586.6666870117188,757.912109375,931.5750732421875,
2025-02-28 12:40:33.997988,805.4578857421875,811.098876953125,814.3223266601562,145.86080932617188,793.7728881835938,1124.17578125,
2025-02-28 12:40:33.998367,792.967041015625,794.1758422851562,813.113525390625,1233.77294921875,881.6116943359375,1153.99267578125,
2025-02-28 12:40:33.998659,778.05859375,795.7875366210938,797.8021850585938,0.0,930.3662719726562,953.7362670898438,
2025-02-28 12:40:33.998926,798.6080322265625,812.7106323242188,801.025634765625,261.0989074707031,820.3662719726562,692.6373901367188,
2025-02-28 12:40:33.999369,801.025634765625,809.084228515625,807.4725341796875,1573.84619140625,908.6080322265625,790.952392578125,
2025-02-28 12:40:33.999124,815.1282348632812,810.2930297851562,808.6813354492188,1585.93408203125,923.91943359375,839.7069702148438,
2025-02-28 12:40:34.038529,774.4322509765625,802.2344360351562,799.010986328125,330.80584716796875,717.2161254882812,562.4908447265625,
2025-02-28 12:40:34.038907,772.0146484375,796.996337890625,798.2051391601562,0.0,749.4505615234375,615.6776733398438,
2025-02-28 12:40:34.039274,794.981689453125,803.4432373046875,813.5164794921875,1001.2820434570312,975.091552734375,822.7838745117188,
2025-02-28 12:40:34.040963,795.3846435546875,807.069580078125,809.084228515625,178.90109252929688,1032.7105712890625,1071.794921875,
2025-02-28 12:40:34.041181,770.0,799.4139404296875,796.1904907226562,879.5970458984375,911.025634765625,1094.761962890625,
2025-02-28 12:40:34.041730,797.8021850585938,804.2490844726562,806.2637329101562,643.4798583984375,900.1465454101562,1143.5164794921875,
2025-02-28 12:40:34.041426,764.7619018554688,794.981689453125,799.8168334960938,0.0,869.9267578125,1098.3883056640625,
2025-02-28 12:40:34.042043,812.3076782226562,807.87548828125,813.113525390625,164.7985382080078,823.99267578125,795.3846435546875,
2025-02-28 12:40:34.042442,784.5054931640625,794.981689453125,804.2490844726562,1014.1758422851562,799.8168334960938,626.959716796875,
2025-02-28 12:40:34.044495,779.6703491210938,790.952392578125,786.923095703125,0.0,834.06591796875,818.7545776367188,
2025-02-28 12:40:34.044674,802.6373901367188,810.6959838867188,800.6226806640625,557.6557006835938,877.5823974609375,994.4322509765625,
2025-02-28 12:40:34.044896,820.7692260742188,816.7399291992188,812.7106323242188,136.1904754638672,911.8314819335938,836.886474609375,
2025-02-28 12:40:34.084946,795.7875366210938,790.5494384765625,805.4578857421875,1231.75830078125,828.4249267578125,696.6666870117188,
2025-02-28 12:40:34.085259,778.8644409179688,777.6557006835938,800.2197875976562,0.0,630.1831665039062,497.21612548828125,
2025-02-28 12:40:34.086120,792.967041015625,794.5787353515625,801.4285888671875,134.57875061035156,617.6923217773438,456.1172180175781,
2025-02-28 12:40:34.087664,812.3076782226562,811.90478515625,807.87548828125,1402.6007080078125,790.952392578125,635.4212646484375,
2025-02-28 12:40:34.088016,799.010986328125,806.2637329101562,805.4578857421875,51.17216110229492,830.8424682617188,771.6116943359375,
2025-02-28 12:40:34.088772,790.952392578125,792.1611938476562,801.8314819335938,0.0,807.069580078125,1076.6300048828125,
2025-02-28 12:40:34.088449,770.0,790.1465454101562,797.8021850585938,514.5421142578125,843.3333129882812,965.8241577148438,
2025-02-28 12:40:34.089387,812.3076782226562,801.4285888671875,809.084228515625,879.5970458984375,693.8461303710938,817.5457763671875,
2025-02-28 12:40:34.089697,801.4285888671875,794.981689453125,809.084228515625,180.91575622558594,587.87548828125,530.6593627929688,
2025-02-28 12:40:34.090038,778.4615478515625,784.1025390625,802.6373901367188,927.5457763671875,759.9267578125,660.4029541015625,
2025-02-28 12:40:34.090728,780.0732421875,796.996337890625,803.4432373046875,614.06591796875,689.4139404296875,561.6849975585938,
2025-02-28 12:40:34.090399,758.3150024414062,777.6557006835938,795.7875366210938,0.0,867.5091552734375,638.6447143554688,
2025-02-28 12:40:34.128895,811.5018310546875,813.5164794921875,809.89013671875,158.35165405273438,705.1282348632812,817.5457763671875,
2025-02-28 12:40:34.130208,793.7728881835938,799.010986328125,802.2344360351562,1028.6812744140625,744.6153564453125,718.02197265625,
2025-02-28 12:40:34.130325,777.2527465820312,790.1465454101562,794.981689453125,0.0,717.2161254882812,460.5494384765625,
2025-02-28 12:40:34.130508,798.2051391601562,802.6373901367188,801.8314819335938,493.5897521972656,821.1721801757812,775.2380981445312,
2025-02-28 12:40:34.130825,819.1575317382812,811.5018310546875,807.4725341796875,93.07691955566406,846.959716796875,1024.6519775390625,
2025-02-28 12:40:34.131009,802.2344360351562,800.2197875976562,798.6080322265625,1363.113525390625,819.5604248046875,977.912109375,
2025-02-28 12:40:34.131159,780.879150390625,786.923095703125,797.8021850585938,56.410255432128906,776.0439453125,975.4945068359375,
2025-02-28 12:40:34.131353,787.3259887695312,799.8168334960938,801.8314819335938,65.27472686767578,858.6447143554688,842.5274658203125,
2025-02-28 12:40:34.131610,809.89013671875,809.084228515625,807.069580078125,1322.0146484375,961.7948608398438,854.6153564453125,
2025-02-28 12:40:34.131796,794.1758422851562,798.2051391601562,807.87548828125,101.94139099121094,952.5274658203125,845.7509155273438,
2025-02-28 12:40:34.131913,761.5384521484375,795.3846435546875,796.996337890625,626.1538696289062,886.8497924804688,740.5860595703125,
2025-02-28 12:40:34.132802,783.6996459960938,794.981689453125,795.7875366210938,0.0,809.084228515625,642.2710571289062,
2025-02-28 12:40:34.174225,800.6226806640625,811.5018310546875,809.084228515625,786.1171875,828.8278198242188,715.2014770507812,
2025-02-28 12:40:34.176319,792.5640869140625,817.5457763671875,807.87548828125,177.2893829345703,838.09521484375,715.2014770507812,
2025-02-28 12:40:34.176457,776.0439453125,795.7875366210938,796.996337890625,982.3442993164062,774.8351440429688,780.0732421875,
2025-02-28 12:40:34.176699,757.912109375,790.1465454101562,801.025634765625,0.0,687.3992919921875,786.1171875,
2025-02-28 12:40:34.176893,797.8021850585938,801.8314819335938,813.91943359375,605.6043701171875,694.2490844726562,612.05126953125,
2025-02-28 12:40:34.177162,824.7985229492188,798.6080322265625,806.6666870117188,158.35165405273438,647.5091552734375,782.087890625,
2025-02-28 12:40:34.177506,761.1355590820312,795.3846435546875,796.5933837890625,0.0,721.2454223632812,732.930419921875,
2025-02-28 12:40:34.177354,789.7435913085938,792.1611938476562,796.996337890625,1095.5677490234375,590.2930297851562,895.7142944335938,
2025-02-28 12:40:34.177822,788.5347900390625,800.6226806640625,800.2197875976562,401.72161865234375,895.7142944335938,757.106201171875,
2025-02-28 12:40:34.178110,806.6666870117188,806.2637329101562,815.5311279296875,44.32234573364258,1002.4908447265625,932.3809814453125,
2025-02-28 12:40:34.178315,781.2820434570312,791.7582397460938,800.2197875976562,1439.6702880859375,917.87548828125,768.7911987304688,
2025-02-28 12:40:34.178565,772.4176025390625,791.7582397460938,782.4908447265625,155.5311279296875,862.6740112304688,624.5421142578125,
2025-02-28 12:40:34.217764,782.4908447265625,790.5494384765625,809.4871826171875,0.0,948.09521484375,817.94873046875,
2025-02-28 12:40:34.219651,808.6813354492188,782.087890625,814.3223266601562,1156.00732421875,871.94140625,803.8461303710938,
2025-02-28 12:40:34.219885,813.5164794921875,795.7875366210938,800.2197875976562,154.3223419189453,789.3406372070312,747.4359130859375,
2025-02-28 12:40:34.220162,796.996337890625,800.2197875976562,800.2197875976562,770.8058471679688,852.1978149414062,985.5677490234375,
2025-02-28 12:40:34.220525,806.2637329101562,799.8168334960938,780.879150390625,0.0,813.113525390625,880.8058471679688,
2025-02-28 12:40:34.220918,832.4542236328125,817.94873046875,763.9560546875,682.1611938476562,659.5970458984375,809.4871826171875,
2025-02-28 12:40:34.221225,826.8131713867188,820.7692260742188,813.113525390625,166.00732421875,694.6520385742188,1118.1318359375,
2025-02-28 12:40:34.221502,774.029296875,807.87548828125,865.4945068359375,1010.1465454101562,859.8534545898438,1150.769287109375,
2025-02-28 12:40:34.221855,728.901123046875,797.3992919921875,857.8388061523438,0.0,792.5640869140625,736.1538696289062,
2025-02-28 12:40:34.222123,728.901123046875,798.2051391601562,860.6593627929688,592.3076782226562,691.4285888671875,583.8461303710938,
2025-02-28 12:40:34.222278,721.6483764648438,814.3223266601562,883.6264038085938,151.90475463867188,796.5933837890625,684.5787353515625,
2025-02-28 12:40:34.222495,688.2051391601562,809.4871826171875,893.2966918945312,1159.6336669921875,782.087890625,575.7875366210938,
2025-02-28 12:40:34.261836,649.5238037109375,790.1465454101562,905.7875366210938,0.0,742.6007080078125,581.4285888671875,
2025-02-28 12:40:34.266873,625.7509155273438,809.4871826171875,918.6813354492188,290.9157409667969,678.937744140625,560.879150390625,
2025-02-28 12:40:34.267081,628.974365234375,832.8571166992188,925.5311279296875,1580.2930908203125,753.076904296875,654.3589477539062,
2025-02-28 12:40:34.267331,608.4249267578125,837.2893676757812,968.2417602539062,1612.5274658203125,906.996337890625,860.6593627929688,
2025-02-28 12:40:34.267672,571.7582397460938,815.93408203125,982.3442993164062,365.4578857421875,757.5091552734375,686.996337890625,
2025-02-28 12:40:34.268170,591.90478515625,804.6520385742188,974.2857055664062,0.0,609.2307739257812,747.4359130859375,
2025-02-28 12:40:34.268497,637.8388061523438,815.1282348632812,997.2527465820312,1089.120849609375,657.5823974609375,1039.157470703125,
2025-02-28 12:40:34.268994,647.106201171875,818.3516235351562,1006.923095703125,170.43955993652344,670.4761962890625,889.2673950195312,
2025-02-28 12:40:34.269360,635.8241577148438,796.5933837890625,990.4029541015625,822.7838745117188,654.7619018554688,711.5750732421875,
2025-02-28 12:40:34.269848,696.2637329101562,763.5531005859375,981.1355590820312,644.2857055664062,829.6337280273438,675.3113403320312,
2025-02-28 12:40:34.269570,646.7033081054688,778.8644409179688,974.2857055664062,0.0,703.113525390625,581.025634765625,
2025-02-28 12:40:34.270312,725.6776733398438,749.8534545898438,970.2564086914062,159.1575164794922,785.7142944335938,683.3699340820312,
2025-02-28 12:40:34.327891,713.99267578125,751.4652099609375,955.3479614257812,1016.1904907226562,776.0439453125,636.2271118164062,
2025-02-28 12:40:34.328396,712.3809814453125,743.003662109375,945.2747192382812,0.0,901.7582397460938,727.2893676757812,
2025-02-28 12:40:34.329878,760.7326049804688,749.047607421875,929.5604248046875,555.2380981445312,906.996337890625,733.7362670898438,
2025-02-28 12:40:34.330847,744.2124633789062,714.3956298828125,910.6226806640625,0.0,664.8351440429688,824.7985229492188,
2025-02-28 12:40:34.330485,753.4798583984375,724.4688720703125,936.8131713867188,1199.5238037109375,669.2673950195312,844.1392211914062,
2025-02-28 12:40:34.330136,784.5054931640625,750.2564086914062,942.05126953125,137.39926147460938,738.5714111328125,814.7252807617188,
2025-02-28 12:40:34.331180,780.0732421875,726.08056640625,909.8168334960938,188.974365234375,679.7435913085938,969.4505615234375,
2025-02-28 12:40:34.331508,817.5457763671875,731.7216186523438,909.8168334960938,1506.5567626953125,875.1648559570312,944.06591796875,
2025-02-28 12:40:34.332123,817.94873046875,724.8717651367188,886.4468994140625,1571.4285888671875,894.1025390625,774.8351440429688,
2025-02-28 12:40:34.332506,792.1611938476562,706.7399291992188,857.8388061523438,338.05859375,780.0732421875,586.6666870117188,
2025-02-28 12:40:34.332860,801.8314819335938,708.7545776367188,846.1538696289062,0.0,855.4212646484375,819.1575317382812,
2025-02-28 12:40:34.333170,839.3040161132812,731.3186645507812,838.09521484375,861.062255859375,912.2344360351562,971.8681030273438,
2025-02-28 12:40:34.372593,833.6630249023438,734.5421142578125,821.5750732421875,155.93406677246094,868.7179565429688,770.4029541015625,
2025-02-28 12:40:34.373575,808.6813354492188,713.1868286132812,807.069580078125,813.91943359375,736.959716796875,626.1538696289062,
2025-02-28 12:40:34.374029,812.3076782226562,718.02197265625,804.2490844726562,0.0,651.5384521484375,455.71429443359375,
2025-02-28 12:40:34.377656,829.6337280273438,742.1978149414062,807.069580078125,629.7802124023438,790.5494384765625,583.4432373046875,
2025-02-28 12:40:34.377903,839.7069702148438,741.7948608398438,801.4285888671875,146.26373291015625,901.7582397460938,858.2417602539062,
2025-02-28 12:40:34.378242,828.4249267578125,738.5714111328125,792.967041015625,1025.4578857421875,904.5787353515625,1074.21240234375,
2025-02-28 12:40:34.379296,810.2930297851562,747.032958984375,789.3406372070312,0.0,978.3150024414062,1256.7398681640625,
2025-02-28 12:40:34.379604,823.1868286132812,749.8534545898438,795.3846435546875,402.1245422363281,896.1171875,985.5677490234375,
2025-02-28 12:40:34.379855,842.930419921875,752.2710571289062,792.967041015625,72.52747344970703,893.2966918945312,836.08056640625,
2025-02-28 12:40:34.380396,829.2307739257812,749.047607421875,783.6996459960938,1207.5823974609375,838.4981689453125,785.7142944335938,
2025-02-28 12:40:34.380955,813.5164794921875,747.4359130859375,782.893798828125,0.0,576.996337890625,437.1794738769531,
2025-02-28 12:40:34.381254,834.06591796875,755.4945068359375,776.4468994140625,0.0,661.2088012695312,485.1282043457031,
2025-02-28 12:40:34.418166,857.032958984375,762.7472534179688,772.4176025390625,1197.912109375,728.09521484375,744.2124633789062,
2025-02-28 12:40:34.418533,857.4359130859375,773.2234497070312,784.908447265625,44.72527313232422,755.091552734375,940.8424682617188,
2025-02-28 12:40:34.420509,845.7509155273438,760.3296508789062,773.6264038085938,0.0,787.3259887695312,694.2490844726562,
2025-02-28 12:40:34.420266,840.915771484375,771.6116943359375,779.2673950195312,478.27838134765625,801.025634765625,679.3406372070312,
2025-02-28 12:40:34.421101,861.8681030273438,787.3259887695312,775.2380981445312,169.23077392578125,866.3003540039062,1100.4029541015625,
2025-02-28 12:40:34.420824,869.9267578125,778.8644409179688,778.8644409179688,794.1758422851562,846.959716796875,1061.7215576171875,
2025-02-28 12:40:34.421483,827.6190185546875,772.8204956054688,767.9853515625,955.3479614257812,892.087890625,1135.86083984375,
2025-02-28 12:40:34.421869,810.2930297851562,770.8058471679688,770.8058471679688,0.0,735.7509155273438,767.1795043945312,
2025-02-28 12:40:34.422248,832.4542236328125,776.4468994140625,773.6264038085938,613.2600708007812,638.2417602539062,520.1831665039062,
2025-02-28 12:40:34.422532,843.7362670898438,785.3113403320312,773.6264038085938,153.91941833496094,796.5933837890625,749.047607421875,
2025-02-28 12:40:34.422802,820.3662719726562,776.0439453125,778.05859375,1023.4432373046875,763.1502075195312,621.7216186523438,
2025-02-28 12:40:34.423163,810.2930297851562,766.7765502929688,770.8058471679688,0.0,642.2710571289062,420.6593322753906,
2025-02-28 12:40:34.461581,834.06591796875,786.5201416015625,761.94140625,344.9084167480469,597.1428833007812,474.6520080566406,
2025-02-28 12:40:34.461942,834.8717651367188,801.8314819335938,762.7472534179688,23.77289390563965,664.8351440429688,626.5567626953125,
2025-02-28 12:40:34.462677,821.5750732421875,784.908447265625,765.5677490234375,1356.2637939453125,749.8534545898438,597.94873046875,
2025-02-28 12:40:34.464450,811.90478515625,773.2234497070312,774.029296875,48.35165023803711,682.5640869140625,571.3552856445312,
2025-02-28 12:40:34.464678,820.3662719726562,790.5494384765625,782.4908447265625,0.0,676.923095703125,799.8168334960938,
2025-02-28 12:40:34.466523,839.3040161132812,805.8607788085938,782.4908447265625,1183.8095703125,719.2307739257812,969.8534545898438,
2025-02-28 12:40:34.466929,797.3992919921875,790.5494384765625,765.5677490234375,623.3333129882812,581.4285888671875,666.0439453125,
2025-02-28 12:40:34.466715,825.2014770507812,811.098876953125,778.8644409179688,107.17948913574219,633.8095092773438,990.8058471679688,
2025-02-28 12:40:34.467133,807.87548828125,784.5054931640625,762.7472534179688,0.0,629.7802124023438,472.6373596191406,
2025-02-28 12:40:34.467441,834.06591796875,796.996337890625,780.4761962890625,705.93408203125,832.4542236328125,817.94873046875,
2025-02-28 12:40:34.468229,806.2637329101562,798.6080322265625,761.1355590820312,995.6410522460938,879.5970458984375,668.8644409179688,
2025-02-28 12:40:34.467780,839.7069702148438,797.8021850585938,780.4761962890625,159.96336364746094,963.4066162109375,902.967041015625,
2025-02-28 12:40:34.507013,786.923095703125,798.2051391601562,767.9853515625,0.0,896.1171875,733.3333129882812,
2025-02-28 12:40:34.507786,810.2930297851562,803.4432373046875,780.4761962890625,604.7985229492188,897.7289428710938,793.3699340820312,
2025-02-28 12:40:34.509482,804.6520385742188,797.8021850585938,779.2673950195312,1136.2637939453125,861.4652099609375,1005.7142944335938,
2025-02-28 12:40:34.509264,823.5897216796875,799.8168334960938,778.05859375,156.73992919921875,893.6996459960938,830.8424682617188,
2025-02-28 12:40:34.509838,786.923095703125,801.8314819335938,775.2380981445312,0.0,841.3186645507812,924.7252807617188,
2025-02-28 12:40:34.510191,792.5640869140625,798.2051391601562,771.2088012695312,360.21978759765625,915.054931640625,996.8497924804688,
2025-02-28 12:40:34.510518,813.113525390625,794.5787353515625,778.4615478515625,15.714285850524902,905.7875366210938,1232.5640869140625,
2025-02-28 12:40:34.510764,815.5311279296875,797.8021850585938,784.5054931640625,1488.4249267578125,892.893798828125,1211.208740234375,
2025-02-28 12:40:34.511244,797.8021850585938,794.981689453125,771.2088012695312,242.1611785888672,777.6557006835938,803.8461303710938,
2025-02-28 12:40:34.511547,787.3259887695312,794.1758422851562,763.9560546875,0.0,641.062255859375,476.6666564941406,
2025-02-28 12:40:34.511913,805.4578857421875,803.4432373046875,762.3442993164062,1014.5787353515625,734.5421142578125,658.7911987304688,
2025-02-28 12:40:34.512202,812.3076782226562,805.8607788085938,756.7033081054688,157.14285278320312,827.6190185546875,772.8204956054688,
2025-02-28 12:40:34.575177,793.3699340820312,797.8021850585938,748.2417602539062,754.2857055664062,837.2893676757812,713.1868286132812,
2025-02-28 12:40:34.575764,793.3699340820312,789.3406372070312,746.6300659179688,0.0,875.970703125,733.3333129882812,
2025-02-28 12:40:34.577695,810.6959838867188,801.4285888671875,752.2710571289062,659.5970458984375,973.8828125,875.970703125,
2025-02-28 12:40:34.578093,819.1575317382812,810.6959838867188,759.5238037109375,157.14285278320312,907.8021850585938,839.7069702148438,
2025-02-28 12:40:34.579465,830.4395751953125,810.2930297851562,757.912109375,571.3552856445312,739.7802124023438,1100.4029541015625,
2025-02-28 12:40:34.578860,792.5640869140625,800.2197875976562,749.8534545898438,0.0,892.087890625,1002.087890625,
2025-02-28 12:40:34.578442,799.010986328125,799.8168334960938,755.4945068359375,1015.3846435546875,811.90478515625,732.12451171875,
2025-02-28 12:40:34.582202,848.5714111328125,815.1282348632812,764.3589477539062,143.84616088867188,688.6080322265625,859.4505615234375,
2025-02-28 12:40:34.582365,811.5018310546875,803.4432373046875,760.7326049804688,1165.6776123046875,740.989013671875,763.5531005859375,
2025-02-28 12:40:34.582991,809.4871826171875,795.7875366210938,769.1941528320312,233.6996307373047,634.2124633789062,566.1171875,
2025-02-28 12:40:34.582678,790.5494384765625,784.908447265625,760.7326049804688,0.0,608.4249267578125,697.4725341796875,
2025-02-28 12:40:34.583375,827.2161254882812,821.1721801757812,777.2527465820312,1533.5531005859375,842.12451171875,779.6703491210938,
2025-02-28 12:40:34.603389,815.93408203125,819.1575317382812,779.2673950195312,1604.4688720703125,933.99267578125,913.8461303710938,
2025-02-28 12:40:34.605567,793.3699340820312,805.054931640625,774.8351440429688,376.3370056152344,851.3919677734375,762.7472534179688,
2025-02-28 12:40:34.606249,790.5494384765625,802.2344360351562,774.8351440429688,0.0,765.5677490234375,634.2124633789062,
2025-02-28 12:40:34.606599,820.3662719726562,810.6959838867188,782.893798828125,923.5164794921875,713.5897216796875,864.6886596679688,
2025-02-28 12:40:34.607414,791.3552856445312,794.1758422851562,767.9853515625,894.5054931640625,842.5274658203125,990.8058471679688,
2025-02-28 12:40:34.607003,823.5897216796875,802.2344360351562,780.879150390625,176.88644409179688,720.03662109375,925.93408203125,
2025-02-28 12:40:34.608003,789.7435913085938,803.4432373046875,772.0146484375,0.0,922.7106323242188,1190.6593017578125,
2025-02-28 12:40:34.608281,816.3369750976562,805.4578857421875,783.6996459960938,626.959716796875,907.3992919921875,984.7619018554688,
2025-02-28 12:40:34.608552,826.4102783203125,807.87548828125,783.2966918945312,161.57508850097656,970.2564086914062,876.7765502929688,
2025-02-28 12:40:34.609202,802.2344360351562,795.3846435546875,776.4468994140625,1016.1904907226562,874.7619018554688,757.912109375,
2025-02-28 12:40:34.609492,780.0732421875,784.908447265625,766.7765502929688,0.0,762.3442993164062,569.3406372070312,
2025-02-28 12:40:34.609846,803.040283203125,803.4432373046875,776.0439453125,559.6703491210938,997.2527465820312,995.2380981445312,
2025-02-28 12:40:34.653031,834.4688720703125,815.93408203125,793.3699340820312,134.981689453125,1091.94140625,1195.091552734375,
2025-02-28 12:40:34.654062,791.3552856445312,786.923095703125,784.908447265625,0.0,815.93408203125,647.5091552734375,
2025-02-28 12:40:34.653541,816.7399291992188,801.4285888671875,789.3406372070312,1253.113525390625,839.7069702148438,775.2380981445312,
2025-02-28 12:40:34.655617,796.996337890625,795.3846435546875,787.3259887695312,153.11355590820312,933.5897216796875,752.2710571289062,
2025-02-28 12:40:34.656204,818.3516235351562,800.2197875976562,782.893798828125,1424.3590087890625,940.4395751953125,891.6849975585938,
2025-02-28 12:40:34.656704,812.3076782226562,797.3992919921875,781.2820434570312,57.619049072265625,885.2380981445312,1108.4615478515625,
2025-02-28 12:40:34.657450,790.952392578125,794.981689453125,784.1025390625,0.0,770.0,814.3223266601562,
2025-02-28 12:40:34.657180,787.7289428710938,787.7289428710938,784.5054931640625,544.7619018554688,795.7875366210938,1147.142822265625,
2025-02-28 12:40:34.657942,816.7399291992188,812.7106323242188,790.1465454101562,844.5421142578125,865.8974609375,755.8974609375,
2025-02-28 12:40:34.659935,818.3516235351562,806.6666870117188,799.8168334960938,179.3040313720703,868.3150024414062,819.5604248046875,
2025-02-28 12:40:34.660107,782.4908447265625,799.010986328125,792.5640869140625,945.6776733398438,902.1611938476562,807.069580078125,
2025-02-28 12:40:34.660333,774.4322509765625,802.2344360351562,789.7435913085938,0.0,956.5567626953125,830.8424682617188,
2025-02-28 12:40:34.691485,811.90478515625,807.4725341796875,802.6373901367188,610.8424682617188,856.6300659179688,756.3003540039062,
2025-02-28 12:40:34.692348,827.6190185546875,811.098876953125,810.2930297851562,157.54579162597656,914.6520385742188,948.09521484375,
2025-02-28 12:40:34.694148,804.2490844726562,809.084228515625,793.7728881835938,1059.7069091796875,983.9560546875,1057.6922607421875,
2025-02-28 12:40:34.694402,799.010986328125,788.937744140625,779.2673950195312,0.0,883.6264038085938,925.5311279296875,
2025-02-28 12:40:34.695121,811.90478515625,783.6996459960938,804.2490844726562,432.74725341796875,706.7399291992188,946.08056640625,
2025-02-28 12:40:34.695407,807.87548828125,811.90478515625,818.7545776367188,71.72161102294922,780.879150390625,1159.230712890625,
2025-02-28 12:40:34.695690,789.3406372070312,818.7545776367188,804.2490844726562,1363.91943359375,796.5933837890625,1122.1611328125,
2025-02-28 12:40:34.696181,777.6557006835938,800.6226806640625,796.996337890625,62.0512809753418,815.93408203125,815.5311279296875,
2025-02-28 12:40:34.696485,789.7435913085938,801.4285888671875,799.010986328125,18.131868362426758,888.05859375,728.901123046875,
2025-02-28 12:40:34.697564,828.4249267578125,816.7399291992188,805.4578857421875,1252.3077392578125,809.4871826171875,732.12451171875,
2025-02-28 12:40:34.697899,834.4688720703125,812.3076782226562,802.2344360351562,109.5970687866211,774.4322509765625,650.7326049804688,
2025-02-28 12:40:34.698147,792.967041015625,796.996337890625,796.1904907226562,626.959716796875,844.1392211914062,639.4505615234375,
2025-02-28 12:40:34.735952,782.4908447265625,798.2051391601562,797.8021850585938,0.0,854.6153564453125,682.5640869140625,
2025-02-28 12:40:34.736289,820.3662719726562,806.2637329101562,807.069580078125,766.3735961914062,853.4066162109375,770.0,
2025-02-28 12:40:34.736716,827.6190185546875,808.2783813476562,803.8461303710938,173.6630096435547,834.8717651367188,726.08056640625,
2025-02-28 12:40:34.737243,798.6080322265625,798.2051391601562,798.6080322265625,984.7619018554688,772.4176025390625,543.1502075195312,
2025-02-28 12:40:34.738626,784.908447265625,793.3699340820312,806.6666870117188,0.0,827.2161254882812,814.7252807617188,
